Timestamp,F3 Value,F3 Quality,FC5 Value,FC5 Quality,F7 Value,F7 Quality,T7 Value,T7 Quality,P7 Value,P7 Quality,O1 Value,O1 Quality,O2 Value,O2 Quality,P8 Value,P8 Quality,T8 Value,T8 Quality,F8 Value,F8 Quality,AF4 Value,AF4 Quality,FC6 Value,FC6 Quality,F4 Value,F4 Quality,AF3 Value,AF3 Quality,X Value,Y Value,Z Value
2017-06-01 17:51:47.572048,4541.06060561,0.0,4248.45454503,0.0,3917.72727234,8.2424242416,3903.81818143,222.545454523,4288.12121169,206.06060604,4516.8484844,1871.03030284,4207.75757534,3033.21212091,4347.87878744,1656.72727256,4988.21212071,2818.90909063,4154.18181777,3943.99999961,4424.63636319,4.1212121208,4209.30302988,8.2424242416,4837.7878783,8.2424242416,4427.21212077,3878.06060567,42.0,42.0,?
2017-06-01 17:51:47.572269,4543.12121167,0.0,4251.54545412,0.0,3914.63636324,8.2424242416,3858.4848481,222.545454523,4265.96969654,206.06060604,4513.24242379,1871.03030284,4194.87878746,3033.21212091,4333.96969654,1656.72727256,5020.66666616,2818.90909063,4171.18181776,3943.99999961,4424.63636319,4.1212121208,4207.75757534,8.2424242416,4837.7878783,8.2424242416,4399.39393895,3878.06060567,42.0,42.0,?
2017-06-01 17:51:47.575759,4543.12121167,0.0,4251.54545412,0.0,3914.63636324,8.2424242416,3858.4848481,222.545454523,4265.96969654,206.06060604,4513.24242379,1871.03030284,4194.87878746,3033.21212091,4333.96969654,1656.72727256,5020.66666616,2818.90909063,4171.18181776,3943.99999961,4424.63636319,4.1212121208,4207.75757534,8.2424242416,4837.7878783,8.2424242416,4399.39393895,3878.06060567,42.0,42.0,?
2017-06-01 17:51:47.583954,4545.69696924,0.0,4251.03030261,0.0,3916.69696931,8.2424242416,3857.45454507,222.545454523,4271.63636321,206.06060604,4511.69696925,1871.03030284,4195.39393897,3033.21212091,4337.06060563,1656.72727256,5029.93939344,2818.90909063,4172.21212079,3943.99999961,4425.15151471,4.1212121208,4207.24242382,8.2424242416,4841.90909042,8.2424242416,4408.15151471,3878.06060567,42.0,42.0,?
2017-06-01 17:51:47.586095,4543.63636318,0.0,4249.99999958,0.0,3917.72727234,8.2424242416,3856.93939355,222.545454523,4263.90909048,206.06060604,4509.63636319,1871.03030284,4190.24242382,3033.21212091,4329.84848442,1656.72727256,5009.33333283,2818.90909063,4138.2121208,3943.99999961,4427.72727228,4.1212121208,4206.21212079,8.2424242416,4843.96969649,8.2424242416,4399.90909047,3878.06060567,42.0,42.0,?
2017-06-01 17:51:47.589904,4544.1515147,0.0,4248.45454503,0.0,3915.15151476,8.2424242416,3855.39393901,222.545454523,4265.96969654,206.06060604,4512.72727228,1871.03030284,4186.1212117,3033.21212091,4329.3333329,1656.72727256,5003.66666617,2818.90909063,4147.48484807,3943.99999961,4427.21212077,4.1212121208,4206.72727231,8.2424242416,4837.7878783,8.2424242416,4395.27272683,3878.06060567,42.0,42.0,?
2017-06-01 17:51:47.592784,4543.12121167,0.0,4246.90909048,0.0,3914.63636324,8.2424242416,3852.30302992,222.545454523,4265.96969654,206.06060604,4514.78787834,1871.03030284,4184.06060564,3033.21212091,4328.81818139,1656.72727256,5022.72727222,2818.90909063,4179.42424201,3943.99999961,4430.30302986,4.1212121208,4208.78787837,8.2424242416,4842.42424194,8.2424242416,4409.18181774,3878.06060567,42.0,42.0,?
2017-06-01 17:51:47.598889,4541.57575712,0.0,4249.99999958,0.0,3917.21212082,8.2424242416,3848.69696931,222.545454523,4266.99999957,206.06060604,4513.24242379,1871.03030284,4181.48484807,3033.21212091,4323.15151472,1656.72727256,5018.09090859,2818.90909063,4152.12121171,3943.99999961,4424.63636319,4.1212121208,4206.72727231,8.2424242416,4842.93939346,8.2424242416,4413.81818138,3878.06060567,42.0,42.0,?
2017-06-01 17:51:47.612661,4544.66666621,0.0,4248.45454503,0.0,3913.60606021,8.2424242416,3851.27272689,222.545454523,4266.48484806,206.06060604,4514.78787834,1871.03030284,4174.78787837,3033.21212091,4311.30302987,1656.72727256,4980.48484799,2818.90909063,4127.39393898,3943.99999961,4427.72727228,4.1212121208,4209.30302988,8.2424242416,4838.81818133,8.2424242416,4409.69696926,3878.06060567,42.0,42.0,?
2017-06-01 17:51:47.620438,4544.66666621,0.0,4248.45454503,0.0,3913.60606021,8.2424242416,3851.27272689,222.545454523,4266.48484806,206.06060604,4514.78787834,1871.03030284,4174.78787837,3033.21212091,4311.30302987,1656.72727256,4980.48484799,2818.90909063,4127.39393898,3943.99999961,4427.72727228,4.1212121208,4209.30302988,8.2424242416,4838.81818133,8.2424242416,4409.69696926,3878.06060567,42.0,42.0,?
2017-06-01 17:51:47.624327,4542.60606015,0.0,4249.99999958,0.0,3916.69696931,8.2424242416,3857.96969658,222.545454523,4271.63636321,206.06060604,4514.27272682,1871.03030284,4170.15151473,3033.21212091,4313.87878745,1656.72727256,5011.39393889,2818.90909063,4163.45454504,3943.99999961,4425.15151471,4.1212121208,4208.27272685,8.2424242416,4836.24242376,8.2424242416,4406.60606017,3878.06060567,42.0,42.0,?
2017-06-01 17:51:47.632127,4539.51515106,0.0,4253.60606018,0.0,3917.21212082,8.2424242416,3854.87878749,222.545454523,4273.69696927,206.06060604,4512.72727228,1871.03030284,4174.27272686,3033.21212091,4324.69696926,1656.72727256,5030.45454495,2818.90909063,4167.57575716,3943.99999961,4430.30302986,4.1212121208,4210.84848443,8.2424242416,4846.03030255,8.2424242416,4404.03030259,3878.06060567,42.0,42.0,?
2017-06-01 17:51:47.638264,4538.48484803,0.0,4250.51515109,0.0,3917.21212082,8.2424242416,3852.30302992,222.545454523,4273.18181775,206.06060604,4513.24242379,1871.03030284,4183.54545413,3033.21212091,4325.72727229,1656.72727256,5016.54545404,2818.90909063,4156.24242383,3943.99999961,4424.63636319,4.1212121208,4210.84848443,8.2424242416,4840.87878739,8.2424242416,4407.12121168,3878.06060567,42.0,42.0,?
2017-06-01 17:51:47.641539,4543.12121167,0.0,4246.90909048,0.0,3917.21212082,8.2424242416,3856.42424204,222.545454523,4272.66666624,206.06060604,4513.75757531,1871.03030284,4184.06060564,3033.21212091,4324.69696926,1656.72727256,5009.33333283,2818.90909063,4159.33333292,3943.99999961,4424.12121168,4.1212121208,4209.30302988,8.2424242416,4837.27272679,8.2424242416,4409.69696926,3878.06060567,42.0,42.0,?
2017-06-01 17:51:47.645741,4542.60606015,0.0,4249.48484806,0.0,3915.66666628,8.2424242416,3857.45454507,222.545454523,4277.30302988,206.06060604,4513.75757531,1871.03030284,4186.1212117,3033.21212091,4333.96969654,1656.72727256,5025.3030298,2818.90909063,4170.15151473,3943.99999961,4427.21212077,4.1212121208,4209.30302988,8.2424242416,4839.84848436,8.2424242416,4410.72727229,3878.06060567,42.0,42.0,?
2017-06-01 17:51:47.649062,4543.12121167,0.0,4252.06060564,0.0,3916.69696931,8.2424242416,3849.72727234,222.545454523,4281.424242,206.06060604,4513.24242379,1871.03030284,4190.75757534,3033.21212091,4335.51515108,1656.72727256,5024.27272677,2818.90909063,4165.5151511,3943.99999961,4426.69696925,4.1212121208,4209.8181814,8.2424242416,4838.81818133,8.2424242416,4411.2424238,3878.06060567,42.0,42.0,?
2017-06-01 17:51:47.655444,4546.72727227,0.0,4250.51515109,0.0,3916.69696931,8.2424242416,3847.15151477,222.545454523,4277.30302988,206.06060604,4511.18181773,1871.03030284,4187.66666625,3033.21212091,4330.87878745,1656.72727256,5011.39393889,2818.90909063,4161.39393898,3943.99999961,4434.42424198,4.1212121208,4212.39393897,8.2424242416,4844.99999952,8.2424242416,4410.72727229,3878.06060567,42.0,42.0,?
2017-06-01 17:51:47.656799,4544.66666621,0.0,4249.48484806,0.0,3915.66666628,8.2424242416,3850.24242386,222.545454523,4271.63636321,206.06060604,4512.72727228,1871.03030284,4185.60606019,3033.21212091,4332.93939351,1656.72727256,5019.63636313,2818.90909063,4166.03030261,3943.99999961,4427.72727228,4.1212121208,4209.8181814,8.2424242416,4841.39393891,8.2424242416,4408.66666623,3878.06060567,42.0,42.0,?
2017-06-01 17:51:47.660058,4544.66666621,0.0,4251.03030261,0.0,3917.72727234,8.2424242416,3856.42424204,222.545454523,4275.75757533,206.06060604,4516.33333288,1871.03030284,4197.96969655,3033.21212091,4341.69696926,1656.72727256,5030.96969647,2818.90909063,4167.57575716,3943.99999961,4425.15151471,4.1212121208,4207.24242382,8.2424242416,4839.33333285,8.2424242416,4405.06060562,3878.06060567,42.0,42.0,?
2017-06-01 17:51:47.663040,4545.18181773,0.0,4249.48484806,0.0,3917.72727234,8.2424242416,3862.0909087,222.545454523,4281.93939351,206.06060604,4517.87878743,1871.03030284,4204.66666625,3033.21212091,4340.15151472,1656.72727256,5024.27272677,2818.90909063,4163.96969655,3943.99999961,4430.81818138,4.1212121208,4210.33333291,8.2424242416,4842.42424194,8.2424242416,4402.48484804,3878.06060567,42.0,42.0,?
2017-06-01 17:51:47.665799,4545.18181773,0.0,4248.96969654,0.0,3917.21212082,8.2424242416,3859.51515113,222.545454523,4271.12121169,206.06060604,4515.30302985,1871.03030284,4186.63636322,3033.21212091,4324.69696926,1656.72727256,5007.27272677,2818.90909063,4159.84848443,3943.99999961,4428.2424238,4.1212121208,4211.87878746,8.2424242416,4838.81818133,8.2424242416,4401.96969653,3878.06060567,42.0,42.0,?
2017-06-01 17:51:47.669041,4546.21212076,8.2424242416,4251.03030261,0.0,3916.69696931,8.2424242416,3858.4848481,222.545454523,4273.69696927,206.06060604,4513.75757531,1871.03030284,4179.93939352,3033.21212091,4323.15151472,1656.72727256,5008.81818132,2818.90909063,4157.27272686,3943.99999961,4426.18181774,4.1212121208,4210.84848443,8.2424242416,4841.39393891,8.2424242416,4399.90909047,3878.06060567,42.0,42.0,?
2017-06-01 17:51:47.674697,4546.21212076,8.2424242416,4251.03030261,0.0,3916.69696931,8.2424242416,3858.4848481,222.545454523,4273.69696927,206.06060604,4513.75757531,1871.03030284,4179.93939352,3033.21212091,4323.15151472,1656.72727256,5008.81818132,2818.90909063,4157.27272686,3943.99999961,4426.18181774,4.1212121208,4210.84848443,8.2424242416,4841.39393891,8.2424242416,4399.90909047,3878.06060567,42.0,42.0,?
2017-06-01 17:51:47.680269,4545.69696924,8.2424242416,4250.51515109,0.0,3915.66666628,8.2424242416,3855.90909052,222.545454523,4261.84848442,206.06060604,4512.72727228,1871.03030284,4181.48484807,3033.21212091,4325.72727229,1656.72727256,5002.63636314,2818.90909063,4159.33333292,3943.99999961,4424.12121168,4.1212121208,4207.24242382,8.2424242416,4837.7878783,8.2424242416,4400.42424198,3878.06060567,42.0,42.0,?
2017-06-01 17:51:47.690548,4542.60606015,8.2424242416,4249.48484806,0.0,3916.69696931,8.2424242416,3851.7878784,222.545454523,4261.84848442,206.06060604,4510.66666622,1871.03030284,4172.21212079,3033.21212091,4321.60606017,1656.72727256,4985.12121162,2818.90909063,4158.30302989,3943.99999961,4430.30302986,4.1212121208,4207.24242382,8.2424242416,4843.45454497,8.2424242416,4397.84848441,3873.93939355,42.0,42.0,?
2017-06-01 17:51:47.696617,4543.63636318,8.2424242416,4248.96969654,0.0,3918.24242385,0.0,3849.21212083,222.545454523,4261.84848442,206.06060604,4512.72727228,1871.03030284,4169.1212117,3033.21212091,4317.48484805,1656.72727256,4973.78787829,2818.90909063,4147.48484807,3943.99999961,4427.72727228,4.1212121208,4208.27272685,8.2424242416,4841.39393891,8.2424242416,4394.2424238,3873.93939355,42.0,42.0,?
2017-06-01 17:51:47.702236,4543.12121167,8.2424242416,4250.51515109,0.0,3914.12121173,0.0,3840.96969659,226.666666644,4270.60606018,201.939393919,4517.36363591,1871.03030284,4172.21212079,3033.21212091,4318.51515108,1656.72727256,4973.27272678,2818.90909063,4130.48484807,3943.99999961,4427.72727228,4.1212121208,4206.72727231,8.2424242416,4839.84848436,8.2424242416,4387.54545411,3873.93939355,42.0,42.0,?
2017-06-01 17:51:47.710914,4543.12121167,8.2424242416,4250.51515109,0.0,3914.12121173,0.0,3840.96969659,226.666666644,4270.60606018,201.939393919,4517.36363591,1871.03030284,4172.21212079,3033.21212091,4318.51515108,1656.72727256,4973.27272678,2818.90909063,4130.48484807,3943.99999961,4427.72727228,4.1212121208,4206.72727231,8.2424242416,4839.84848436,8.2424242416,4387.54545411,3873.93939355,42.0,42.0,?
2017-06-01 17:51:47.719054,4543.12121167,8.2424242416,4251.54545412,0.0,3916.18181779,0.0,3841.4848481,226.666666644,4258.24242382,201.939393919,4512.21212076,1858.66666648,4162.93939352,3033.21212091,4317.99999957,1656.72727256,4967.09090859,2818.90909063,4135.63636322,3943.99999961,4423.09090865,4.1212121208,4207.75757534,8.2424242416,4838.30302982,8.2424242416,4390.12121168,3873.93939355,42.0,42.0,?
2017-06-01 17:51:47.732097,4544.66666621,8.2424242416,4251.03030261,0.0,3915.66666628,0.0,3843.03030265,226.666666644,4247.424242,201.939393919,4509.63636319,1858.66666648,4156.24242383,3041.45454515,4310.27272684,1656.72727256,4951.12121163,2818.90909063,4139.75757534,3943.99999961,4427.21212077,4.1212121208,4207.75757534,8.2424242416,4846.54545406,8.2424242416,4400.9393935,3873.93939355,42.0,42.0,?
2017-06-01 17:51:47.735465,4544.66666621,8.2424242416,4252.06060564,0.0,3916.69696931,0.0,3843.54545416,226.666666644,4260.30302988,201.939393919,4512.72727228,1858.66666648,4162.93939352,3041.45454515,4309.75757533,1660.84848468,4918.66666617,2818.90909063,4134.60606019,3943.99999961,4426.18181774,4.1212121208,4207.24242382,8.2424242416,4840.87878739,8.2424242416,4406.09090865,3873.93939355,42.0,42.0,?
2017-06-01 17:51:47.741012,4544.66666621,8.2424242416,4252.06060564,0.0,3916.69696931,0.0,3843.54545416,226.666666644,4260.30302988,201.939393919,4512.72727228,1858.66666648,4162.93939352,3041.45454515,4309.75757533,1660.84848468,4918.66666617,2818.90909063,4134.60606019,3943.99999961,4426.18181774,4.1212121208,4207.24242382,8.2424242416,4840.87878739,8.2424242416,4405.57575714,3873.93939355,42.0,42.0,?
2017-06-01 17:51:47.749185,4541.06060561,8.2424242416,4248.96969654,0.0,3918.24242385,0.0,3839.42424204,226.666666644,4254.63636321,201.939393919,4511.69696925,1858.66666648,4158.30302989,3041.45454515,4309.24242381,1660.84848468,4906.30302981,2818.90909063,4123.78787838,3948.12121173,4426.18181774,4.1212121208,4204.66666625,8.2424242416,4842.93939346,8.2424242416,4404.54545411,3873.93939355,42.0,42.0,?
2017-06-01 17:51:47.767362,4543.63636318,8.2424242416,4245.87878745,0.0,3920.30302991,0.0,3835.30302992,226.666666644,4253.09090867,201.939393919,4514.27272682,1858.66666648,4152.63636322,3041.45454515,4297.90909048,1660.84848468,4894.45454497,2818.90909063,4122.24242383,3948.12121173,4430.81818138,12.3636363624,4207.24242382,8.2424242416,4839.33333285,8.2424242416,4398.87878744,3873.93939355,42.0,42.0,?
2017-06-01 17:51:47.770354,4543.63636318,8.2424242416,4245.87878745,0.0,3920.30302991,0.0,3835.30302992,226.666666644,4253.09090867,201.939393919,4513.75757531,1858.66666648,4149.03030262,3041.45454515,4297.90909048,1660.84848468,4894.45454497,2818.90909063,4122.24242383,3948.12121173,4430.81818138,12.3636363624,4207.24242382,8.2424242416,4839.33333285,8.2424242416,4395.27272683,3873.93939355,42.0,42.0,?
2017-06-01 17:51:47.775248,4542.60606015,8.2424242416,4251.03030261,0.0,3919.7878784,0.0,3834.7878784,226.666666644,4249.99999958,201.939393919,4512.21212076,1858.66666648,4142.33333292,3041.45454515,4297.90909048,1660.84848468,4881.57575709,2818.90909063,4147.99999959,3952.24242385,4425.66666622,12.3636363624,4206.21212079,8.2424242416,4841.39393891,8.2424242416,4411.2424238,3873.93939355,42.0,42.0,?
2017-06-01 17:51:47.780414,4542.60606015,8.2424242416,4251.03030261,0.0,3919.7878784,0.0,3834.7878784,226.666666644,4249.99999958,201.939393919,4512.21212076,1858.66666648,4142.33333292,3041.45454515,4297.90909048,1660.84848468,4881.57575709,2818.90909063,4147.99999959,3952.24242385,4425.66666622,12.3636363624,4206.21212079,8.2424242416,4841.39393891,8.2424242416,4411.2424238,3873.93939355,42.0,42.0,?
2017-06-01 17:51:47.836318,4541.57575712,8.2424242416,4252.06060564,0.0,3919.27272688,0.0,3830.66666628,226.666666644,4249.99999958,201.939393919,4512.21212076,1858.66666648,4139.24242383,3041.45454515,4296.87878745,1660.84848468,4886.21212072,2818.90909063,4153.66666625,3952.24242385,4431.84848441,12.3636363624,4206.72727231,8.2424242416,4843.96969649,8.2424242416,4407.12121168,3873.93939355,42.0,42.0,?
2017-06-01 17:51:47.851832,4544.66666621,8.2424242416,4250.51515109,0.0,3916.69696931,0.0,3824.99999962,226.666666644,4247.424242,201.939393919,4514.78787834,1858.66666648,4139.24242383,3041.45454515,4291.7272723,1660.84848468,4886.21212072,2818.90909063,4156.24242383,3952.24242385,4430.30302986,12.3636363624,4207.75757534,8.2424242416,4838.30302982,8.2424242416,4401.45454501,3873.93939355,42.0,42.0,?
2017-06-01 17:51:47.857434,4543.12121167,8.2424242416,4247.93939351,0.0,3917.72727234,0.0,3820.36363598,226.666666644,4249.48484806,201.939393919,4516.33333288,1858.66666648,4138.2121208,3041.45454515,4290.18181775,1660.84848468,4871.7878783,2818.90909063,4164.99999958,3952.24242385,4429.78787834,12.3636363624,4206.21212079,8.2424242416,4840.36363588,8.2424242416,4406.09090865,3873.93939355,42.0,42.0,?
2017-06-01 17:51:47.862379,4543.12121167,8.2424242416,4247.93939351,0.0,3917.72727234,0.0,3820.8787875,226.666666644,4249.48484806,201.939393919,4512.72727228,1858.66666648,4138.2121208,3041.45454515,4294.81818139,1660.84848468,4871.7878783,2818.90909063,4169.1212117,3952.24242385,4424.12121168,12.3636363624,4206.21212079,8.2424242416,4840.36363588,8.2424242416,4413.81818138,3873.93939355,42.0,42.0,?
2017-06-01 17:51:47.864852,4541.57575712,8.2424242416,4247.93939351,0.0,3915.15151476,0.0,3813.66666629,226.666666644,4245.36363594,201.939393919,4512.21212076,1858.66666648,4149.03030262,3041.45454515,4300.48484805,1660.84848468,4871.7878783,2818.90909063,4139.24242383,3952.24242385,4428.75757531,12.3636363624,4208.78787837,8.2424242416,4839.33333285,8.2424242416,4402.99999956,3873.93939355,42.0,42.0,?
2017-06-01 17:51:47.869191,4541.57575712,8.2424242416,4247.93939351,0.0,3915.15151476,0.0,3813.66666629,226.666666644,4245.36363594,201.939393919,4512.21212076,1858.66666648,4149.03030262,3041.45454515,4300.48484805,1660.84848468,4871.7878783,2818.90909063,4139.24242383,3952.24242385,4428.75757531,12.3636363624,4208.78787837,8.2424242416,4839.33333285,8.2424242416,4402.99999956,3873.93939355,42.0,42.0,?
2017-06-01 17:51:47.872676,4540.03030258,8.2424242416,4248.96969654,0.0,3916.69696931,0.0,3811.60606022,226.666666644,4241.75757533,201.939393919,4511.69696925,1858.66666648,4139.75757534,3041.45454515,4288.12121169,1660.84848468,4857.36363588,2818.90909063,4140.78787837,3952.24242385,4424.12121168,12.3636363624,4206.72727231,8.2424242416,4837.7878783,8.2424242416,4406.60606017,3873.93939355,42.0,42.0,?
2017-06-01 17:51:47.879176,4538.99999955,8.2424242416,4248.45454503,0.0,3915.66666628,0.0,3813.15151477,226.666666644,4238.66666624,201.939393919,4510.66666622,1858.66666648,4136.15151474,3041.45454515,4282.96969654,1660.84848468,4857.36363588,2818.90909063,4138.2121208,3952.24242385,4423.60606016,12.3636363624,4204.66666625,8.2424242416,4837.27272679,8.2424242416,4406.09090865,3873.93939355,42.0,42.0,?
2017-06-01 17:51:47.882655,4543.63636318,8.2424242416,4248.96969654,0.0,3915.15151476,0.0,3810.06060568,226.666666644,4236.60606018,201.939393919,4510.1515147,1858.66666648,4135.63636322,3041.45454515,4286.06060563,1660.84848468,4859.42424194,2818.90909063,4112.45454504,3952.24242385,4427.72727228,12.3636363624,4203.63636322,8.2424242416,4837.7878783,8.2424242416,4390.6363632,3873.93939355,42.0,42.0,?
2017-06-01 17:51:47.886191,4544.1515147,8.2424242416,4249.99999958,0.0,3915.66666628,0.0,3810.06060568,226.666666644,4235.06060564,201.939393919,4509.12121167,1858.66666648,4125.33333292,3041.45454515,4276.78787836,1660.84848468,4857.87878739,2818.90909063,4084.12121171,3952.24242385,4425.66666622,12.3636363624,4202.09090867,8.2424242416,4835.72727224,8.2424242416,4374.66666623,3873.93939355,42.0,42.0,?
2017-06-01 17:51:47.888940,4540.54545409,8.2424242416,4248.96969654,0.0,3915.15151476,0.0,3815.21212083,226.666666644,4231.45454503,201.939393919,4510.66666622,1858.66666648,4117.60606019,3041.45454515,4265.45454503,1660.84848468,4859.42424194,2818.90909063,4070.72727232,3952.24242385,4427.21212077,12.3636363624,4203.1212117,8.2424242416,4840.36363588,8.2424242416,4371.06060562,3873.93939355,42.0,42.0,?
2017-06-01 17:51:47.892141,4540.54545409,8.2424242416,4247.93939351,0.0,3915.15151476,0.0,3812.63636326,226.666666644,4225.27272685,201.939393919,4512.21212076,1858.66666648,4117.09090868,3041.45454515,4267.51515109,1660.84848468,4855.81818133,2818.90909063,4056.81818141,3952.24242385,4423.09090865,12.3636363624,4203.1212117,8.2424242416,4837.7878783,8.2424242416,4371.57575714,3873.93939355,42.0,42.0,?
2017-06-01 17:51:47.899408,4539.51515106,8.2424242416,4248.96969654,0.0,3914.12121173,0.0,3805.42424204,226.666666644,4226.8181814,201.939393919,4509.12121167,1858.66666648,4114.5151511,3041.45454515,4266.99999957,1660.84848468,4856.84848436,2818.90909063,4040.84848444,3952.24242385,4422.57575713,12.3636363624,4203.1212117,8.2424242416,4838.30302982,8.2424242416,4367.96969653,3873.93939355,42.0,42.0,?
2017-06-01 17:51:47.901765,4539.51515106,8.2424242416,4249.48484806,0.0,3914.12121173,0.0,3803.8787875,226.666666644,4232.48484806,201.939393919,4510.66666622,1858.66666648,4111.42424201,3041.45454515,4265.45454503,1660.84848468,4868.69696921,2818.90909063,4041.36363596,3952.24242385,4424.12121168,12.3636363624,4204.15151473,8.2424242416,4841.90909042,8.2424242416,4369.51515108,3873.93939355,42.0,42.0,?
2017-06-01 17:51:47.904703,4540.03030258,8.2424242416,4246.90909048,0.0,3914.63636324,0.0,3800.78787841,226.666666644,4224.24242382,201.939393919,4514.27272682,1858.66666648,4117.09090868,3041.45454515,4278.84848442,1660.84848468,4875.90909042,2818.90909063,4056.81818141,3952.24242385,4423.09090865,12.3636363624,4205.69696928,8.2424242416,4835.21212073,8.2424242416,4378.78787835,3873.93939355,42.0,42.0,?
2017-06-01 17:51:47.908160,4538.99999955,8.2424242416,4245.36363594,0.0,3914.12121173,0.0,3797.1818178,226.666666644,4216.51515109,201.939393919,4511.69696925,1858.66666648,4120.18181777,3041.45454515,4282.96969654,1660.84848468,4867.15151466,2818.90909063,4065.57575717,3952.24242385,4427.72727228,12.3636363624,4205.18181776,8.2424242416,4837.27272679,8.2424242416,4384.96969653,3873.93939355,42.0,42.0,?
2017-06-01 17:51:47.913838,4540.54545409,8.2424242416,4248.96969654,0.0,3914.63636324,0.0,3799.75757538,226.666666644,4222.69696927,201.939393919,4511.18181773,1858.66666648,4107.81818141,3041.45454515,4259.78787836,1660.84848468,4831.60606012,2818.90909063,4068.66666626,3952.24242385,4423.60606016,12.3636363624,4202.60606019,8.2424242416,4838.30302982,8.2424242416,4385.99999956,3873.93939355,42.0,42.0,?
2017-06-01 17:51:47.921789,4537.96969652,8.2424242416,4250.51515109,0.0,3915.15151476,0.0,3802.84848447,226.666666644,4228.87878746,201.939393919,4514.78787834,1858.66666648,4101.12121171,3041.45454515,4245.36363594,1660.84848468,4801.72727225,2818.90909063,4086.69696929,3952.24242385,4423.09090865,12.3636363624,4203.63636322,8.2424242416,4837.27272679,8.2424242416,4391.15151471,3873.93939355,42.0,42.0,?
2017-06-01 17:51:47.929224,4537.454545,8.2424242416,4249.48484806,0.0,3914.63636324,0.0,3801.30302992,226.666666644,4227.33333291,201.939393919,4512.72727228,1858.66666648,4105.24242383,3041.45454515,4254.1212117,1660.84848468,4817.69696922,2818.90909063,4109.87878747,3952.24242385,4428.75757531,12.3636363624,4203.63636322,8.2424242416,4838.30302982,8.2424242416,4396.30302986,3873.93939355,42.0,42.0,?
2017-06-01 17:51:47.938846,4540.03030258,8.2424242416,4251.54545412,0.0,3915.15151476,0.0,3801.30302992,226.666666644,4229.90909049,201.939393919,4510.66666622,1858.66666648,4102.15151474,3041.45454515,4260.81818139,1660.84848468,4830.57575709,2818.90909063,4115.03030262,3952.24242385,4422.57575713,12.3636363624,4199.5151511,8.2424242416,4834.1818177,8.2424242416,4390.6363632,3873.93939355,42.0,42.0,?
2017-06-01 17:51:47.944029,4540.03030258,8.2424242416,4252.57575715,0.0,3915.15151476,0.0,3805.42424204,226.666666644,4233.51515109,201.939393919,4512.72727228,1858.66666648,4106.78787838,3041.45454515,4264.93939351,1660.84848468,4812.54545406,2818.90909063,4118.63636322,3952.24242385,4424.12121168,12.3636363624,4202.60606019,8.2424242416,4838.30302982,8.2424242416,4388.57575714,3873.93939355,42.0,42.0,?
2017-06-01 17:51:47.951704,4542.09090864,8.2424242416,4249.99999958,0.0,3916.18181779,0.0,3802.84848447,226.666666644,4227.84848443,201.939393919,4513.75757531,1858.66666648,4123.78787838,3041.45454515,4268.54545412,1660.84848468,4803.27272679,2818.90909063,4142.33333292,3952.24242385,4425.66666622,12.3636363624,4206.72727231,8.2424242416,4838.30302982,8.2424242416,4400.42424198,3873.93939355,42.0,42.0,?
2017-06-01 17:51:47.962036,4540.03030258,8.2424242416,4248.45454503,0.0,3916.18181779,0.0,3798.21212083,226.666666644,4226.30302988,201.939393919,4513.24242379,1858.66666648,4129.45454504,3041.45454515,4267.51515109,1660.84848468,4799.66666619,2818.90909063,4159.84848443,3952.24242385,4423.60606016,12.3636363624,4203.1212117,8.2424242416,4833.15151467,8.2424242416,4405.57575714,3873.93939355,42.0,42.0,?
2017-06-01 17:51:47.969059,4538.99999955,8.2424242416,4247.93939351,0.0,3914.63636324,0.0,3796.66666629,226.666666644,4228.36363594,201.939393919,4512.72727228,1858.66666648,4121.72727232,3041.45454515,4263.90909048,1660.84848468,4776.99999952,2818.90909063,4146.45454504,3952.24242385,4426.18181774,12.3636363624,4200.54545413,8.2424242416,4834.69696921,8.2424242416,4395.27272683,3873.93939355,42.0,42.0,?
2017-06-01 17:51:47.978243,4543.12121167,8.2424242416,4247.93939351,0.0,3914.12121173,0.0,3794.60606023,226.666666644,4220.63636321,201.939393919,4513.24242379,1858.66666648,4116.06060565,3041.45454515,4258.75757533,1660.84848468,4763.09090861,2818.90909063,4126.87878747,3952.24242385,4424.63636319,12.3636363624,4203.1212117,8.2424242416,4834.69696921,8.2424242416,4382.90909047,3873.93939355,42.0,42.0,?
2017-06-01 17:51:47.990389,4541.06060561,8.2424242416,4247.424242,0.0,3914.12121173,0.0,3798.21212083,226.666666644,4223.21212079,201.939393919,4514.78787834,1858.66666648,4122.24242383,3041.45454515,4259.27272685,1660.84848468,4779.06060558,2818.90909063,4137.18181777,3952.24242385,4426.18181774,12.3636363624,4205.18181776,8.2424242416,4839.33333285,8.2424242416,4384.45454502,3873.93939355,42.0,42.0,?
2017-06-01 17:51:47.999435,4540.03030258,8.2424242416,4247.424242,0.0,3914.63636324,0.0,3806.45454507,226.666666644,4240.7272723,201.939393919,4513.75757531,1858.66666648,4122.75757535,3041.45454515,4261.33333291,1660.84848468,4792.45454498,2818.90909063,4146.96969656,3952.24242385,4425.15151471,12.3636363624,4202.09090867,8.2424242416,4840.36363588,8.2424242416,4393.72727229,3873.93939355,42.0,42.0,?
2017-06-01 17:51:48.004716,4543.63636318,8.2424242416,4247.93939351,0.0,3914.63636324,0.0,3803.8787875,226.666666644,4239.69696927,201.939393919,4510.66666622,1858.66666648,4103.69696929,3041.45454515,4262.36363594,1660.84848468,4788.33333285,2818.90909063,4129.45454504,3952.24242385,4421.5454541,12.3636363624,4202.09090867,8.2424242416,4837.7878783,8.2424242416,4392.18181774,3873.93939355,42.0,42.0,?
2017-06-01 17:51:48.008864,4543.63636318,8.2424242416,4247.93939351,0.0,3915.66666628,0.0,3799.75757538,226.666666644,4229.90909049,201.939393919,4513.24242379,1858.66666648,4098.03030262,3041.45454515,4263.90909048,1660.84848468,4793.48484801,2818.90909063,4123.78787838,3952.24242385,4426.69696925,12.3636363624,4204.66666625,8.2424242416,4837.7878783,8.2424242416,4386.51515108,3873.93939355,42.0,42.0,?
2017-06-01 17:51:48.015141,4542.09090864,8.2424242416,4248.45454503,0.0,3918.24242385,0.0,3805.93939356,226.666666644,4241.75757533,201.939393919,4517.87878743,1858.66666648,4120.18181777,3041.45454515,4263.90909048,1660.84848468,4824.39393891,2818.90909063,4139.24242383,3952.24242385,4426.18181774,12.3636363624,4199.5151511,8.2424242416,4835.72727224,8.2424242416,4391.15151471,3873.93939355,42.0,42.0,?
2017-06-01 17:51:48.023746,4541.06060561,8.2424242416,4248.45454503,0.0,3916.18181779,0.0,3813.15151477,226.666666644,4249.99999958,201.939393919,4513.24242379,1858.66666648,4123.27272686,3041.45454515,4263.90909048,1660.84848468,4831.60606012,2818.90909063,4139.24242383,3952.24242385,4424.63636319,12.3636363624,4199.5151511,8.2424242416,4839.84848436,8.2424242416,4390.12121168,3873.93939355,42.0,42.0,?
2017-06-01 17:51:48.031053,4542.09090864,8.2424242416,4248.96969654,0.0,3915.15151476,0.0,3809.03030265,226.666666644,4231.96969655,201.939393919,4510.66666622,1858.66666648,4099.57575717,3041.45454515,4253.09090867,1660.84848468,4786.27272679,2818.90909063,4126.36363595,3952.24242385,4425.66666622,12.3636363624,4204.15151473,8.2424242416,4838.81818133,8.2424242416,4378.27272683,3873.93939355,42.0,42.0,?
2017-06-01 17:51:48.038268,4542.09090864,8.2424242416,4249.48484806,0.0,3915.66666628,0.0,3801.30302992,226.666666644,4221.66666624,201.939393919,4515.30302985,1858.66666648,4091.84848444,3041.45454515,4238.66666624,1660.84848468,4759.99999952,2818.90909063,4124.30302989,3952.24242385,4424.12121168,12.3636363624,4203.63636322,8.2424242416,4833.15151467,8.2424242416,4372.60606017,3873.93939355,42.0,42.0,?
2017-06-01 17:51:48.050237,4541.06060561,8.2424242416,4247.93939351,0.0,3912.57575718,0.0,3804.39393901,226.666666644,4227.33333291,201.939393919,4517.36363591,1858.66666648,4101.12121171,3041.45454515,4244.84848442,1660.84848468,4778.03030255,2818.90909063,4123.78787838,3952.24242385,4425.15151471,12.3636363624,4201.57575716,8.2424242416,4836.75757527,8.2424242416,4370.03030259,3873.93939355,42.0,42.0,?
2017-06-01 17:51:48.058289,4542.09090864,8.2424242416,4249.48484806,0.0,3913.0909087,0.0,3810.06060568,226.666666644,4231.96969655,201.939393919,4517.36363591,1858.66666648,4106.78787838,3041.45454515,4260.81818139,1660.84848468,4793.48484801,2818.90909063,4129.96969656,3952.24242385,4423.09090865,12.3636363624,4201.57575716,8.2424242416,4837.27272679,8.2424242416,4366.9393935,3873.93939355,42.0,42.0,?
2017-06-01 17:51:48.063786,4542.09090864,8.2424242416,4251.03030261,0.0,3915.66666628,0.0,3807.4848481,226.666666644,4237.63636321,201.939393919,4518.39393894,1858.66666648,4111.42424201,3041.45454515,4266.48484806,1660.84848468,4797.60606013,2818.90909063,4146.96969656,3952.24242385,4428.75757531,12.3636363624,4204.15151473,8.2424242416,4840.87878739,8.2424242416,4372.60606017,3873.93939355,42.0,42.0,?
2017-06-01 17:51:48.081208,4542.60606015,8.2424242416,4250.51515109,0.0,3916.18181779,0.0,3805.42424204,226.666666644,4243.30302988,201.939393919,4518.39393894,1858.66666648,4117.60606019,3041.45454515,4262.87878745,1660.84848468,4805.84848437,2818.90909063,4151.60606019,3952.24242385,4430.81818138,12.3636363624,4204.66666625,8.2424242416,4839.33333285,8.2424242416,4378.27272683,3873.93939355,42.0,42.0,?
2017-06-01 17:51:48.085785,4545.18181773,8.2424242416,4249.48484806,0.0,3915.66666628,0.0,3812.12121174,226.666666644,4247.424242,201.939393919,4518.90909046,1858.66666648,4129.96969656,3041.45454515,4266.48484806,1660.84848468,4800.1818177,2818.90909063,4152.12121171,3952.24242385,4424.12121168,12.3636363624,4203.1212117,8.2424242416,4831.09090861,8.2424242416,4382.90909047,3873.93939355,42.0,42.0,?
2017-06-01 17:51:48.113371,4543.12121167,8.2424242416,4248.45454503,0.0,3915.15151476,0.0,3817.27272689,226.666666644,4248.96969654,201.939393919,4516.33333288,1858.66666648,4135.12121171,3041.45454515,4273.18181775,1660.84848468,4778.03030255,2818.90909063,4150.06060565,3952.24242385,4428.75757531,12.3636363624,4201.06060564,8.2424242416,4839.33333285,8.2424242416,4384.96969653,3873.93939355,42.0,42.0,?
2017-06-01 17:51:48.119982,4542.09090864,8.2424242416,4248.96969654,0.0,3914.63636324,0.0,3811.60606022,226.666666644,4237.63636321,201.939393919,4511.69696925,1858.66666648,4120.18181777,3041.45454515,4279.36363594,1660.84848468,4772.8787874,2818.90909063,4131.5151511,3952.24242385,4426.69696925,12.3636363624,4199.5151511,8.2424242416,4842.42424194,8.2424242416,4373.12121168,3873.93939355,42.0,42.0,?
2017-06-01 17:51:48.135641,4540.54545409,8.2424242416,4248.96969654,0.0,3914.12121173,0.0,3807.99999962,226.666666644,4240.21212079,201.939393919,4511.69696925,1858.66666648,4113.48484807,3041.45454515,4285.0303026,1660.84848468,4781.12121164,2818.90909063,4132.03030262,3952.24242385,4423.60606016,12.3636363624,4205.69696928,8.2424242416,4838.30302982,8.2424242416,4364.87878744,3873.93939355,42.0,42.0,?
2017-06-01 17:51:48.153767,4539.51515106,8.2424242416,4249.99999958,0.0,3915.15151476,0.0,3815.72727235,226.666666644,4246.39393897,201.939393919,4511.69696925,1858.66666648,4118.63636322,3041.45454515,4279.36363594,1660.84848468,4776.99999952,2818.90909063,4149.03030262,3952.24242385,4427.72727228,12.3636363624,4201.57575716,8.2424242416,4839.84848436,8.2424242416,4372.09090865,3873.93939355,42.0,42.0,?
2017-06-01 17:51:48.162879,4539.51515106,8.2424242416,4251.03030261,0.0,3915.66666628,0.0,3820.36363598,226.666666644,4246.39393897,201.939393919,4515.81818137,1858.66666648,4115.03030262,3041.45454515,4263.90909048,1660.84848468,4762.5757571,2818.90909063,4142.84848443,3952.24242385,4424.12121168,12.3636363624,4201.57575716,8.2424242416,4836.75757527,8.2424242416,4374.66666623,3873.93939355,42.0,42.0,?
2017-06-01 17:51:48.165846,4546.21212076,8.2424242416,4248.96969654,0.0,3914.63636324,0.0,3814.1818178,226.666666644,4253.09090867,201.939393919,4520.96969652,1858.66666648,4122.75757535,3041.45454515,4276.27272685,1660.84848468,4768.75757528,2818.90909063,4147.99999959,3952.24242385,4426.18181774,12.3636363624,4202.09090867,8.2424242416,4839.84848436,8.2424242416,4384.96969653,3873.93939355,42.0,42.0,?
2017-06-01 17:51:48.175495,4546.21212076,8.2424242416,4249.48484806,0.0,3916.18181779,0.0,3805.93939356,226.666666644,4253.09090867,201.939393919,4520.96969652,1858.66666648,4133.57575716,3041.45454515,4300.99999957,1660.84848468,4779.06060558,2818.90909063,4170.66666625,3952.24242385,4425.66666622,12.3636363624,4204.66666625,8.2424242416,4839.33333285,8.2424242416,4404.54545411,3873.93939355,42.0,42.0,?
2017-06-01 17:51:48.186465,4541.06060561,8.2424242416,4246.90909048,0.0,3916.69696931,0.0,3819.84848447,226.666666644,4239.69696927,201.939393919,4515.81818137,1858.66666648,4124.81818141,3041.45454515,4282.45454503,1660.84848468,4744.03030256,2818.90909063,4145.42424201,3952.24242385,4427.72727228,12.3636363624,4203.63636322,8.2424242416,4839.84848436,8.2424242416,4397.84848441,3873.93939355,42.0,42.0,?
2017-06-01 17:51:48.189765,4541.06060561,8.2424242416,4246.90909048,0.0,3916.69696931,0.0,3819.84848447,226.666666644,4239.69696927,201.939393919,4513.75757531,1858.66666648,4123.27272686,3041.45454515,4282.45454503,1660.84848468,4744.03030256,2818.90909063,4145.42424201,3952.24242385,4427.72727228,12.3636363624,4203.63636322,8.2424242416,4839.84848436,8.2424242416,4374.66666623,3873.93939355,42.0,42.0,?
2017-06-01 17:51:48.196914,4539.51515106,8.2424242416,4248.96969654,0.0,3915.15151476,0.0,3808.51515113,226.666666644,4241.24242382,201.939393919,4513.24242379,1858.66666648,4104.2121208,3041.45454515,4266.99999957,1660.84848468,4728.5757571,2818.90909063,4158.30302989,3952.24242385,4424.63636319,12.3636363624,4204.15151473,8.2424242416,4838.81818133,8.2424242416,4394.2424238,3873.93939355,42.0,42.0,?
2017-06-01 17:51:48.203934,4541.06060561,8.2424242416,4248.96969654,0.0,3915.15151476,0.0,3808.51515113,226.666666644,4246.90909048,201.939393919,4513.24242379,1858.66666648,4104.2121208,3041.45454515,4266.99999957,1660.84848468,4728.5757571,2818.90909063,4158.30302989,3952.24242385,4424.63636319,12.3636363624,4203.63636322,8.2424242416,4838.81818133,8.2424242416,4394.2424238,3873.93939355,42.0,42.0,?
2017-06-01 17:51:48.211691,4541.06060561,4.1212121208,4251.03030261,0.0,3913.60606021,0.0,3809.54545416,226.666666644,4246.90909048,201.939393919,4519.42424197,1858.66666648,4098.03030262,3041.45454515,4259.27272685,1660.84848468,4695.60606014,2818.90909063,4159.33333292,3952.24242385,4426.18181774,12.3636363624,4203.63636322,8.2424242416,4839.84848436,8.2424242416,4401.45454501,3873.93939355,42.0,42.0,?
2017-06-01 17:51:48.216279,4542.09090864,4.1212121208,4248.96969654,4.1212121208,3916.18181779,0.0,3815.72727235,226.666666644,4253.60606018,201.939393919,4521.48484803,1858.66666648,4117.09090868,3041.45454515,4278.33333291,1660.84848468,4693.03030256,2818.90909063,4156.75757534,3952.24242385,4424.63636319,12.3636363624,4199.5151511,8.2424242416,4835.21212073,8.2424242416,4394.2424238,3873.93939355,42.0,42.0,?
2017-06-01 17:51:48.219264,4541.06060561,4.1212121208,4249.48484806,4.1212121208,3913.60606021,0.0,3816.24242386,226.666666644,4245.36363594,201.939393919,4513.75757531,1858.66666648,4126.36363595,3041.45454515,4291.21212078,1660.84848468,4698.69696923,2818.90909063,4168.09090867,3952.24242385,4425.15151471,12.3636363624,4204.66666625,8.2424242416,4837.27272679,8.2424242416,4406.09090865,3882.18181779,42.0,42.0,?
2017-06-01 17:51:48.221778,4541.06060561,4.1212121208,4249.48484806,4.1212121208,3913.60606021,8.2424242416,3816.24242386,226.666666644,4245.36363594,201.939393919,4513.75757531,1858.66666648,4126.36363595,3041.45454515,4291.21212078,1660.84848468,4698.69696923,2818.90909063,4168.09090867,3952.24242385,4425.15151471,12.3636363624,4204.66666625,8.2424242416,4837.27272679,8.2424242416,4406.09090865,3882.18181779,42.0,42.0,?
2017-06-01 17:51:48.228061,4542.09090864,4.1212121208,4247.93939351,4.1212121208,3916.18181779,8.2424242416,3816.75757538,226.666666644,4242.78787836,201.939393919,4515.30302985,1858.66666648,4123.27272686,3041.45454515,4288.63636321,1660.84848468,4661.09090862,2818.90909063,4228.36363594,3952.24242385,4427.21212077,12.3636363624,4207.24242382,8.2424242416,4839.84848436,8.2424242416,4432.36363592,3882.18181779,42.0,42.0,?
2017-06-01 17:51:48.229831,4542.09090864,4.1212121208,4247.93939351,4.1212121208,3916.18181779,8.2424242416,3816.75757538,226.666666644,4242.78787836,201.939393919,4515.30302985,1858.66666648,4123.27272686,3041.45454515,4288.63636321,1660.84848468,4661.09090862,2818.90909063,4228.36363594,3952.24242385,4427.21212077,12.3636363624,4207.24242382,8.2424242416,4839.84848436,8.2424242416,4432.36363592,3882.18181779,42.0,42.0,?
2017-06-01 17:51:48.232824,4542.09090864,4.1212121208,4247.93939351,4.1212121208,3917.72727234,8.2424242416,3822.93939356,226.666666644,4242.78787836,201.939393919,4516.8484844,1846.30303012,4125.33333292,3041.45454515,4293.78787836,1660.84848468,4662.12121166,2818.90909063,4265.45454503,3952.24242385,4425.15151471,12.3636363624,4207.24242382,8.2424242416,4835.72727224,8.2424242416,4461.21212077,3882.18181779,42.0,42.0,?
2017-06-01 17:51:48.241085,4541.06060561,4.1212121208,4248.96969654,4.1212121208,3916.18181779,8.2424242416,3825.51515113,226.666666644,4255.66666624,201.939393919,4516.8484844,1846.30303012,4139.24242383,3033.21212091,4305.12121169,1660.84848468,4666.24242378,2818.90909063,4302.0303026,3952.24242385,4429.27272683,12.3636363624,4209.30302988,8.2424242416,4840.36363588,8.2424242416,4483.36363592,3882.18181779,42.0,42.0,?
2017-06-01 17:51:48.246208,4543.63636318,4.1212121208,4249.99999958,4.1212121208,3915.66666628,8.2424242416,3823.96969659,226.666666644,4261.84848442,201.939393919,4516.33333288,1846.30303012,4144.90909049,3033.21212091,4307.69696927,1660.84848468,4658.51515105,2818.90909063,4315.42424199,3952.24242385,4423.09090865,12.3636363624,4206.21212079,8.2424242416,4837.7878783,8.2424242416,4476.1515147,3882.18181779,42.0,42.0,?
2017-06-01 17:51:48.249296,4542.60606015,4.1212121208,4249.99999958,4.1212121208,3914.12121173,8.2424242416,3825.51515113,226.666666644,4252.57575715,201.939393919,4515.81818137,1846.30303012,4140.27272686,3033.21212091,4301.51515109,1660.84848468,4642.54545408,2909.57575728,4322.6363632,3952.24242385,4423.60606016,12.3636363624,4204.66666625,8.2424242416,4838.81818133,8.2424242416,4477.69696925,3882.18181779,42.0,42.0,?
2017-06-01 17:51:48.253970,4538.48484803,4.1212121208,4251.54545412,4.1212121208,3915.15151476,8.2424242416,3822.93939356,226.666666644,4251.03030261,201.939393919,4516.8484844,1846.30303012,4138.2121208,3033.21212091,4288.12121169,1660.84848468,4634.81818135,2909.57575728,4333.96969654,3939.87878748,4428.2424238,12.3636363624,4207.24242382,8.2424242416,4841.90909042,8.2424242416,4499.33333288,3882.18181779,42.0,42.0,?
2017-06-01 17:51:48.259011,4540.03030258,4.1212121208,4252.06060564,4.1212121208,3916.69696931,8.2424242416,3820.8787875,226.666666644,4253.60606018,201.939393919,4515.81818137,1846.30303012,4138.2121208,3033.21212091,4284.51515109,1660.84848468,4636.87878742,2909.57575728,4338.60606017,3939.87878748,4426.18181774,8.2424242416,4204.66666625,8.2424242416,4836.24242376,8.2424242416,4505.51515106,3882.18181779,42.0,42.0,?
2017-06-01 17:51:48.267071,4541.57575712,4.1212121208,4248.96969654,4.1212121208,3913.60606021,8.2424242416,3822.93939356,226.666666644,4248.96969654,201.939393919,4513.75757531,1846.30303012,4137.69696928,3033.21212091,4297.39393896,1660.84848468,4632.24242378,2909.57575728,4340.15151472,3939.87878748,4428.75757531,8.2424242416,4201.06060564,8.2424242416,4838.30302982,8.2424242416,4497.78787834,3882.18181779,42.0,42.0,?
2017-06-01 17:51:48.273088,4542.09090864,4.1212121208,4248.96969654,4.1212121208,3913.0909087,8.2424242416,3823.45454507,226.666666644,4259.78787836,201.939393919,4515.81818137,1846.30303012,4140.78787837,3033.21212091,4306.15151472,1660.84848468,4621.93939348,2909.57575728,4336.0303026,3939.87878748,4424.12121168,8.2424242416,4203.1212117,8.2424242416,4838.81818133,8.2424242416,4491.60606016,3882.18181779,42.0,42.0,?
2017-06-01 17:51:48.284491,4542.60606015,4.1212121208,4251.54545412,4.1212121208,3915.15151476,8.2424242416,3823.45454507,226.666666644,4259.78787836,201.939393919,4515.81818137,1846.30303012,4145.42424201,3033.21212091,4306.15151472,1660.84848468,4625.54545408,2909.57575728,4330.36363593,3948.12121173,4422.06060562,8.2424242416,4206.72727231,8.2424242416,4839.33333285,8.2424242416,4486.45454501,3882.18181779,42.0,42.0,?
2017-06-01 17:51:48.289635,4543.63636318,4.1212121208,4252.06060564,4.1212121208,3915.66666628,8.2424242416,3826.54545416,226.666666644,4260.81818139,201.939393919,4513.75757531,1846.30303012,4144.39393898,3033.21212091,4304.60606018,1660.84848468,4641.51515105,2909.57575728,4332.42424199,3948.12121173,4424.12121168,8.2424242416,4205.69696928,8.2424242416,4839.84848436,8.2424242416,4490.06060561,3882.18181779,42.0,42.0,?
2017-06-01 17:51:48.297224,4540.54545409,4.1212121208,4251.03030261,4.1212121208,3916.18181779,8.2424242416,3827.57575719,226.666666644,4259.78787836,201.939393919,4516.33333288,1846.30303012,4147.48484807,3033.21212091,4310.27272684,1660.84848468,4649.75757529,2909.57575728,4336.0303026,3948.12121173,4424.12121168,8.2424242416,4205.18181776,12.3636363624,4835.72727224,8.2424242416,4496.75757531,3882.18181779,42.0,42.0,?
2017-06-01 17:51:48.307867,4537.454545,4.1212121208,4250.51515109,4.1212121208,3915.15151476,8.2424242416,3828.09090871,226.666666644,4264.424242,201.939393919,4517.36363591,1846.30303012,4158.30302989,3033.21212091,4321.09090866,1660.84848468,4642.54545408,2909.57575728,4335.51515108,3948.12121173,4428.75757531,8.2424242416,4208.27272685,12.3636363624,4837.7878783,8.2424242416,4495.21212076,3882.18181779,42.0,42.0,?
2017-06-01 17:51:48.312877,4541.57575712,4.1212121208,4250.51515109,4.1212121208,3916.18181779,8.2424242416,3834.27272689,226.666666644,4262.87878745,201.939393919,4513.24242379,1846.30303012,4160.36363595,3033.21212091,4317.99999957,1660.84848468,4634.30302984,2909.57575728,4335.51515108,3948.12121173,4425.15151471,8.2424242416,4207.24242382,12.3636363624,4837.27272679,8.2424242416,4498.30302985,3882.18181779,42.0,42.0,?
2017-06-01 17:51:48.319860,4543.12121167,4.1212121208,4249.48484806,4.1212121208,3917.72727234,8.2424242416,3834.27272689,226.666666644,4259.27272685,201.939393919,4515.81818137,1846.30303012,4163.45454504,3033.21212091,4306.15151472,1660.84848468,4642.03030257,2909.57575728,4339.12121169,3948.12121173,4423.09090865,8.2424242416,4205.18181776,12.3636363624,4835.72727224,8.2424242416,4511.18181773,3882.18181779,42.0,42.0,?
2017-06-01 17:51:48.332846,4536.42424197,4.1212121208,4250.51515109,4.1212121208,3914.63636324,8.2424242416,3828.60606022,226.666666644,4268.54545412,201.939393919,4523.54545409,1846.30303012,4178.90909049,3033.21212091,4318.51515108,1660.84848468,4658.51515105,2909.57575728,4353.54545411,3948.12121173,4426.18181774,8.2424242416,4206.21212079,12.3636363624,4837.27272679,8.2424242416,4518.39393894,3882.18181779,42.0,42.0,?
2017-06-01 17:51:48.343957,4536.93939349,4.1212121208,4252.06060564,4.1212121208,3916.18181779,8.2424242416,3830.66666628,226.666666644,4274.21212078,201.939393919,4521.48484803,1846.30303012,4189.72727231,3033.21212091,4342.72727229,1660.84848468,4667.27272681,2909.57575728,4368.99999956,3948.12121173,4425.66666622,8.2424242416,4206.21212079,12.3636363624,4839.84848436,8.2424242416,4519.42424197,3882.18181779,42.0,42.0,?
2017-06-01 17:51:48.346756,4540.54545409,4.1212121208,4250.51515109,4.1212121208,3918.75757537,8.2424242416,3836.33333295,226.666666644,4261.84848442,201.939393919,4512.21212076,1846.30303012,4179.42424201,3033.21212091,4328.81818139,1660.84848468,4654.39393893,2909.57575728,4364.87878744,3948.12121173,4429.78787834,8.2424242416,4206.72727231,12.3636363624,4844.484848,8.2424242416,4525.60606015,3882.18181779,42.0,42.0,?
2017-06-01 17:51:48.352410,4540.54545409,4.1212121208,4251.54545412,4.1212121208,3916.18181779,8.2424242416,3833.24242386,226.666666644,4256.18181776,201.939393919,4515.30302985,1846.30303012,4163.96969655,3033.21212091,4297.39393896,1660.84848468,4643.0606056,2909.57575728,4363.84848441,3948.12121173,4425.15151471,8.2424242416,4207.24242382,12.3636363624,4838.30302982,8.2424242416,4538.99999955,3882.18181779,42.0,42.0,?
2017-06-01 17:51:48.360355,4541.57575712,4.1212121208,4252.06060564,4.1212121208,3916.18181779,8.2424242416,3828.60606022,226.666666644,4264.424242,201.939393919,4523.03030258,1846.30303012,4160.36363595,3033.21212091,4297.39393896,1660.84848468,4650.78787832,2909.57575728,4394.75757532,3948.12121173,4423.09090865,8.2424242416,4210.33333291,12.3636363624,4837.7878783,8.2424242416,4562.18181773,3882.18181779,42.0,42.0,?
2017-06-01 17:51:48.367474,4542.09090864,4.1212121208,4250.51515109,4.1212121208,3918.24242385,8.2424242416,3827.06060568,226.666666644,4264.93939351,201.939393919,4518.39393894,1846.30303012,4166.03030261,3033.21212091,4314.90909048,1660.84848468,4647.18181772,2909.57575728,4429.27272683,3948.12121173,4427.72727228,8.2424242416,4211.87878746,12.3636363624,4843.96969649,8.2424242416,4590.51515106,3882.18181779,42.0,42.0,?
2017-06-01 17:51:48.375979,4542.09090864,4.1212121208,4251.54545412,4.1212121208,3918.75757537,8.2424242416,3823.96969659,226.666666644,4263.39393897,201.939393919,4515.81818137,1846.30303012,4170.15151473,3033.21212091,4314.39393896,1660.84848468,4635.84848438,2909.57575728,4443.18181774,3948.12121173,4424.12121168,8.2424242416,4207.75757534,12.3636363624,4834.69696921,8.2424242416,4609.0606056,3882.18181779,42.0,42.0,?
2017-06-01 17:51:48.390222,4540.54545409,4.1212121208,4252.06060564,4.1212121208,3918.75757537,8.2424242416,3828.09090871,226.666666644,4268.0303026,201.939393919,4517.87878743,1846.30303012,4171.18181776,3033.21212091,4307.18181775,1660.84848468,4662.63636317,2909.57575728,4450.39393895,3948.12121173,4426.18181774,8.2424242416,4208.27272685,12.3636363624,4836.24242376,8.2424242416,4612.15151469,3882.18181779,42.0,42.0,?
2017-06-01 17:51:48.401153,4541.57575712,4.1212121208,4250.51515109,4.1212121208,3918.75757537,8.2424242416,3833.24242386,226.666666644,4262.87878745,201.939393919,4513.75757531,1846.30303012,4169.1212117,3033.21212091,4311.30302987,1660.84848468,4687.87878741,2909.57575728,4456.57575713,3948.12121173,4424.12121168,8.2424242416,4210.33333291,12.3636363624,4841.90909042,8.2424242416,4610.60606014,3882.18181779,42.0,42.0,?
2017-06-01 17:51:48.405752,4542.60606015,4.1212121208,4251.03030261,4.1212121208,3917.21212082,8.2424242416,3825.51515113,226.666666644,4250.51515109,201.939393919,4508.60606016,1846.30303012,4163.45454504,3033.21212091,4313.87878745,1660.84848468,4676.03030256,2909.57575728,4470.99999955,3948.12121173,4422.06060562,8.2424242416,4208.27272685,12.3636363624,4837.27272679,8.2424242416,4625.03030257,3882.18181779,42.0,42.0,?
2017-06-01 17:51:48.410874,4540.54545409,4.1212121208,4251.03030261,4.1212121208,3914.12121173,8.2424242416,3817.27272689,226.666666644,4250.51515109,201.939393919,4510.1515147,1846.30303012,4158.30302989,3033.21212091,4310.78787836,1660.84848468,4674.99999953,2909.57575728,4491.09090864,3948.12121173,4428.75757531,8.2424242416,4208.27272685,12.3636363624,4840.87878739,8.2424242416,4650.27272681,3882.18181779,42.0,42.0,?
2017-06-01 17:51:48.414966,4542.60606015,4.1212121208,4250.51515109,4.1212121208,3916.69696931,8.2424242416,3821.39393901,226.666666644,4253.60606018,201.939393919,4514.78787834,1846.30303012,4159.84848443,3033.21212091,4300.48484805,1660.84848468,4685.30302983,2909.57575728,4486.96969652,3948.12121173,4424.63636319,8.2424242416,4209.8181814,12.3636363624,4839.33333285,8.2424242416,4650.27272681,3882.18181779,42.0,42.0,?
2017-06-01 17:51:48.421642,4542.60606015,4.1212121208,4250.51515109,4.1212121208,3918.75757537,8.2424242416,3829.63636325,226.666666644,4246.90909048,201.939393919,4514.78787834,1846.30303012,4161.90909049,3033.21212091,4291.21212078,1660.84848468,4673.45454499,2909.57575728,4470.48484804,3948.12121173,4423.60606016,8.2424242416,4209.8181814,12.3636363624,4836.75757527,8.2424242416,4634.81818135,3882.18181779,42.0,42.0,?
2017-06-01 17:51:48.430492,4540.03030258,4.1212121208,4252.06060564,4.1212121208,3917.21212082,8.2424242416,3822.93939356,226.666666644,4239.18181776,201.939393919,4513.24242379,1846.30303012,4159.33333292,3033.21212091,4294.81818139,1660.84848468,4656.45454499,2909.57575728,4470.99999955,3948.12121173,4426.18181774,8.2424242416,4208.27272685,12.3636363624,4837.7878783,8.2424242416,4641.51515105,3882.18181779,42.0,42.0,?
2017-06-01 17:51:48.442465,4542.09090864,4.1212121208,4252.06060564,4.1212121208,3914.63636324,8.2424242416,3810.57575719,226.666666644,4244.33333291,201.939393919,4513.75757531,1846.30303012,4155.2121208,3033.21212091,4298.93939351,1660.84848468,4652.84848438,2909.57575728,4480.78787834,3948.12121173,4424.12121168,8.2424242416,4209.30302988,12.3636363624,4837.7878783,8.2424242416,4657.99999953,3882.18181779,42.0,42.0,?
2017-06-01 17:51:48.445385,4540.54545409,4.1212121208,4248.96969654,4.1212121208,3914.63636324,8.2424242416,3810.57575719,226.666666644,4244.33333291,201.939393919,4512.21212076,1846.30303012,4151.60606019,3033.21212091,4293.78787836,1660.84848468,4651.81818135,2909.57575728,4474.60606016,3948.12121173,4426.69696925,8.2424242416,4210.84848443,12.3636363624,4838.81818133,8.2424242416,4656.9696965,3882.18181779,42.0,42.0,?
2017-06-01 17:51:48.452922,4540.54545409,4.1212121208,4248.96969654,4.1212121208,3916.69696931,8.2424242416,3813.15151477,226.666666644,4244.33333291,201.939393919,4513.24242379,1846.30303012,4155.72727231,3033.21212091,4296.36363593,1660.84848468,4652.33333287,2909.57575728,4446.78787834,3948.12121173,4425.66666622,8.2424242416,4207.75757534,12.3636363624,4835.72727224,8.2424242416,4634.81818135,3882.18181779,42.0,42.0,?
2017-06-01 17:51:48.464360,4540.03030258,4.1212121208,4249.99999958,4.1212121208,3914.63636324,8.2424242416,3810.06060568,226.666666644,4248.96969654,201.939393919,4516.33333288,1846.30303012,4166.03030261,3033.21212091,4306.15151472,1660.84848468,4653.3636359,2909.57575728,4421.03030259,3948.12121173,4426.69696925,8.2424242416,4206.21212079,12.3636363624,4838.30302982,8.2424242416,4606.99999954,3882.18181779,42.0,42.0,?
2017-06-01 17:51:48.467990,4538.99999955,4.1212121208,4250.51515109,4.1212121208,3914.12121173,8.2424242416,3815.72727235,226.666666644,4244.84848442,201.939393919,4511.69696925,1846.30303012,4152.63636322,3033.21212091,4289.15151472,1660.84848468,4646.6666662,2909.57575728,4414.33333289,3948.12121173,4428.2424238,8.2424242416,4207.75757534,12.3636363624,4840.36363588,8.2424242416,4591.54545409,3882.18181779,42.0,42.0,?
2017-06-01 17:51:48.486569,4538.99999955,4.1212121208,4250.51515109,4.1212121208,3914.63636324,8.2424242416,3833.24242386,226.666666644,4248.96969654,201.939393919,4510.1515147,1846.30303012,4140.27272686,3033.21212091,4286.06060563,1660.84848468,4638.93939348,2909.57575728,4417.9393935,3948.12121173,4426.18181774,8.2424242416,4211.36363594,12.3636363624,4839.84848436,8.2424242416,4586.39393894,3882.18181779,42.0,42.0,?
2017-06-01 17:51:48.491401,4538.99999955,4.1212121208,4250.51515109,4.1212121208,3914.63636324,8.2424242416,3833.24242386,226.666666644,4248.96969654,201.939393919,4510.1515147,1846.30303012,4140.27272686,3033.21212091,4286.06060563,1660.84848468,4638.93939348,2909.57575728,4417.9393935,3948.12121173,4426.18181774,8.2424242416,4211.36363594,12.3636363624,4839.84848436,8.2424242416,4586.39393894,3882.18181779,42.0,42.0,?
2017-06-01 17:51:48.503459,4540.03030258,4.1212121208,4249.99999958,4.1212121208,3915.15151476,8.2424242416,3827.06060568,226.666666644,4252.57575715,201.939393919,4513.24242379,1846.30303012,4160.36363595,3033.21212091,4286.06060563,1660.84848468,4643.0606056,2909.57575728,4390.6363632,3948.12121173,4424.63636319,8.2424242416,4205.69696928,12.3636363624,4838.30302982,8.2424242416,4569.39393894,3882.18181779,42.0,42.0,?
2017-06-01 17:51:48.507561,4537.96969652,4.1212121208,4251.03030261,4.1212121208,3917.21212082,8.2424242416,3823.96969659,226.666666644,4249.48484806,201.939393919,4513.75757531,1846.30303012,4154.18181777,3033.21212091,4290.18181775,1660.84848468,4644.09090863,2909.57575728,4380.3333329,3948.12121173,4427.72727228,8.2424242416,4206.72727231,12.3636363624,4838.30302982,8.2424242416,4570.42424197,3882.18181779,42.0,42.0,?
2017-06-01 17:51:48.521932,4538.99999955,4.1212121208,4252.06060564,4.1212121208,3916.69696931,8.2424242416,3832.72727234,226.666666644,4258.75757533,201.939393919,4512.21212076,1846.30303012,4151.09090868,3033.21212091,4310.27272684,1660.84848468,4644.09090863,2909.57575728,4390.6363632,3948.12121173,4430.81818138,8.2424242416,4211.87878746,12.3636363624,4840.36363588,8.2424242416,4576.60606015,3882.18181779,42.0,42.0,?
2017-06-01 17:51:48.527425,4543.12121167,4.1212121208,4250.51515109,4.1212121208,3916.18181779,8.2424242416,3835.30302992,226.666666644,4254.1212117,201.939393919,4510.1515147,1846.30303012,4159.33333292,3033.21212091,4312.84848442,1660.84848468,4642.03030257,2909.57575728,4380.3333329,3948.12121173,4425.15151471,8.2424242416,4207.24242382,12.3636363624,4836.75757527,8.2424242416,4563.72727227,3882.18181779,42.0,42.0,?
2017-06-01 17:51:48.530460,4541.57575712,4.1212121208,4249.48484806,4.1212121208,3916.69696931,8.2424242416,3827.57575719,226.666666644,4238.66666624,201.939393919,4510.66666622,1846.30303012,4153.15151474,3033.21212091,4298.42424199,1660.84848468,4640.48484802,2909.57575728,4357.15151472,3948.12121173,4429.27272683,8.2424242416,4204.66666625,12.3636363624,4841.39393891,8.2424242416,4537.96969652,3882.18181779,42.0,42.0,?
2017-06-01 17:51:48.534732,4541.06060561,4.1212121208,4252.06060564,4.1212121208,3916.69696931,8.2424242416,3827.57575719,226.666666644,4247.93939351,201.939393919,4514.27272682,1846.30303012,4140.27272686,3033.21212091,4293.78787836,1660.84848468,4630.69696923,2909.57575728,4349.9393935,3948.12121173,4428.2424238,8.2424242416,4207.75757534,12.3636363624,4840.36363588,8.2424242416,4519.93939349,3882.18181779,42.0,42.0,?
2017-06-01 17:51:48.538841,4542.60606015,4.1212121208,4251.54545412,4.1212121208,3914.63636324,8.2424242416,3832.72727234,226.666666644,4256.18181776,201.939393919,4511.69696925,1846.30303012,4140.27272686,3033.21212091,4292.75757533,1660.84848468,4627.09090863,2909.57575728,4349.9393935,3948.12121173,4425.66666622,8.2424242416,4207.24242382,12.3636363624,4835.72727224,8.2424242416,4524.06060561,3882.18181779,42.0,42.0,?
2017-06-01 17:51:48.547321,4543.63636318,4.1212121208,4248.96969654,4.1212121208,3913.0909087,8.2424242416,3829.12121174,226.666666644,4245.87878745,201.939393919,4510.1515147,1846.30303012,4148.5151511,3033.21212091,4291.7272723,1660.84848468,4639.45454499,2909.57575728,4344.78787835,3948.12121173,4429.78787834,8.2424242416,4207.24242382,12.3636363624,4838.81818133,8.2424242416,4534.87878743,3882.18181779,42.0,42.0,?
2017-06-01 17:51:48.554835,4543.12121167,4.1212121208,4251.03030261,4.1212121208,3915.66666628,8.2424242416,3824.4848481,226.666666644,4241.75757533,201.939393919,4512.21212076,1846.30303012,4142.33333292,3033.21212091,4290.18181775,1660.84848468,4641.51515105,2909.57575728,4330.87878745,3948.12121173,4422.57575713,8.2424242416,4207.24242382,12.3636363624,4835.72727224,8.2424242416,4520.454545,3882.18181779,42.0,42.0,?
2017-06-01 17:51:48.562323,4540.54545409,4.1212121208,4251.03030261,4.1212121208,3917.21212082,8.2424242416,3829.63636325,226.666666644,4239.69696927,201.939393919,4509.63636319,1846.30303012,4133.57575716,3033.21212091,4286.06060563,1660.84848468,4634.81818135,2909.57575728,4317.99999957,3948.12121173,4421.5454541,8.2424242416,4206.21212079,12.3636363624,4837.27272679,8.2424242416,4501.39393894,3882.18181779,42.0,42.0,?
2017-06-01 17:51:48.570883,4542.60606015,4.1212121208,4249.99999958,4.1212121208,3915.66666628,8.2424242416,3837.87878749,226.666666644,4236.09090867,201.939393919,4510.66666622,1846.30303012,4134.60606019,3033.21212091,4288.63636321,1660.84848468,4636.3636359,2909.57575728,4310.78787836,3948.12121173,4425.15151471,8.2424242416,4207.24242382,12.3636363624,4841.39393891,8.2424242416,4502.93939349,3882.18181779,42.0,42.0,?
2017-06-01 17:51:48.578621,4543.12121167,4.1212121208,4251.03030261,4.1212121208,3913.60606021,8.2424242416,3837.36363598,226.666666644,4239.18181776,201.939393919,4515.81818137,1846.30303012,4132.03030262,3033.21212091,4288.12121169,1660.84848468,4627.60606014,2909.57575728,4296.87878745,3948.12121173,4425.66666622,8.2424242416,4209.30302988,12.3636363624,4836.75757527,8.2424242416,4494.69696925,3882.18181779,42.0,42.0,?
2017-06-01 17:51:48.585779,4538.99999955,4.1212121208,4250.51515109,4.1212121208,3913.0909087,8.2424242416,3830.66666628,226.666666644,4245.36363594,201.939393919,4512.72727228,1846.30303012,4131.5151511,3033.21212091,4293.78787836,1660.84848468,4619.87878742,2909.57575728,4292.75757533,3948.12121173,4427.72727228,8.2424242416,4208.27272685,12.3636363624,4836.75757527,8.2424242416,4485.93939349,3882.18181779,42.0,42.0,?
2017-06-01 17:51:48.593742,4540.54545409,4.1212121208,4250.51515109,4.1212121208,3914.63636324,8.2424242416,3836.84848446,226.666666644,4247.93939351,201.939393919,4507.06060561,1846.30303012,4141.8181814,3033.21212091,4306.66666624,1660.84848468,4644.60606014,2909.57575728,4302.0303026,3948.12121173,4425.66666622,8.2424242416,4206.72727231,12.3636363624,4837.7878783,8.2424242416,4498.30302985,3882.18181779,42.0,42.0,?
2017-06-01 17:51:48.611377,4543.63636318,4.1212121208,4249.48484806,4.1212121208,3913.0909087,8.2424242416,3854.36363598,226.666666644,4246.90909048,201.939393919,4506.54545409,1846.30303012,4143.36363595,3033.21212091,4302.0303026,1660.84848468,4654.39393893,2909.57575728,4292.75757533,3948.12121173,4428.75757531,8.2424242416,4208.78787837,12.3636363624,4838.30302982,8.2424242416,4489.5454541,3882.18181779,42.0,42.0,?
2017-06-01 17:51:48.616727,4543.12121167,4.1212121208,4248.45454503,4.1212121208,3913.0909087,8.2424242416,3853.84848446,226.666666644,4241.24242382,201.939393919,4510.66666622,1846.30303012,4136.15151474,3033.21212091,4281.93939351,1660.84848468,4629.15151469,2909.57575728,4274.7272723,3948.12121173,4428.75757531,8.2424242416,4209.30302988,12.3636363624,4837.27272679,8.2424242416,4465.8484844,3882.18181779,42.0,42.0,?
2017-06-01 17:51:48.620920,4539.51515106,4.1212121208,4249.48484806,4.1212121208,3915.15151476,8.2424242416,3840.45454507,226.666666644,4239.69696927,201.939393919,4512.72727228,1846.30303012,4146.96969656,3033.21212091,4275.24242381,1660.84848468,4614.21212075,2909.57575728,4271.63636321,3948.12121173,4424.12121168,8.2424242416,4206.21212079,12.3636363624,4834.69696921,8.2424242416,4474.60606016,3882.18181779,42.0,42.0,?
2017-06-01 17:51:48.625217,4537.96969652,4.1212121208,4249.48484806,4.1212121208,3915.15151476,8.2424242416,3839.93939356,226.666666644,4240.7272723,201.939393919,4511.18181773,1846.30303012,4158.8181814,3033.21212091,4289.15151472,1660.84848468,4622.45454499,2909.57575728,4275.24242381,3948.12121173,4427.72727228,8.2424242416,4206.72727231,12.3636363624,4840.87878739,8.2424242416,4491.60606016,3882.18181779,42.0,42.0,?
2017-06-01 17:51:48.635860,4541.06060561,4.1212121208,4250.51515109,4.1212121208,3915.66666628,8.2424242416,3843.03030265,226.666666644,4234.03030261,201.939393919,4512.72727228,1846.30303012,4147.48484807,3033.21212091,4298.93939351,1660.84848468,4647.69696923,2909.57575728,4271.12121169,3948.12121173,4426.18181774,8.2424242416,4207.75757534,12.3636363624,4838.30302982,8.2424242416,4475.12121167,3882.18181779,42.0,42.0,?
2017-06-01 17:51:48.640312,4540.54545409,4.1212121208,4250.51515109,4.1212121208,3916.18181779,8.2424242416,3842.51515113,226.666666644,4236.60606018,201.939393919,4514.78787834,1846.30303012,4140.78787837,3033.21212091,4300.48484805,1660.84848468,4662.12121166,2909.57575728,4265.45454503,3948.12121173,4425.66666622,8.2424242416,4205.18181776,12.3636363624,4837.7878783,8.2424242416,4456.57575713,3882.18181779,42.0,42.0,?
2017-06-01 17:51:48.647718,4538.48484803,4.1212121208,4250.51515109,4.1212121208,3914.12121173,8.2424242416,3845.60606022,226.666666644,4246.90909048,201.939393919,4513.24242379,1846.30303012,4150.57575716,3033.21212091,4304.09090866,1660.84848468,4647.69696923,2909.57575728,4263.90909048,3948.12121173,4427.72727228,8.2424242416,4204.15151473,12.3636363624,4841.90909042,8.2424242416,4460.18181774,3882.18181779,42.0,42.0,?
2017-06-01 17:51:48.657713,4541.57575712,4.1212121208,4251.03030261,4.1212121208,3913.60606021,8.2424242416,3851.27272689,226.666666644,4243.81818139,201.939393919,4512.21212076,1846.30303012,4153.15151474,3033.21212091,4298.42424199,1660.84848468,4643.0606056,2909.57575728,4258.75757533,3948.12121173,4427.21212077,8.2424242416,4205.18181776,12.3636363624,4836.75757527,8.2424242416,4462.75757531,3882.18181779,42.0,42.0,?
2017-06-01 17:51:48.663892,4540.54545409,4.1212121208,4248.45454503,4.1212121208,3914.63636324,8.2424242416,3860.54545416,226.666666644,4242.78787836,201.939393919,4513.24242379,1846.30303012,4153.15151474,3033.21212091,4293.78787836,1660.84848468,4659.03030256,2909.57575728,4251.54545412,3948.12121173,4429.27272683,8.2424242416,4204.66666625,12.3636363624,4836.75757527,8.2424242416,4456.57575713,3882.18181779,42.0,42.0,?
2017-06-01 17:51:48.671771,4540.54545409,4.1212121208,4248.45454503,4.1212121208,3916.69696931,8.2424242416,3860.54545416,226.666666644,4250.51515109,201.939393919,4512.72727228,1846.30303012,4156.24242383,3033.21212091,4299.45454502,1660.84848468,4646.6666662,2909.57575728,4248.45454503,3948.12121173,4425.66666622,8.2424242416,4203.1212117,12.3636363624,4836.24242376,8.2424242416,4451.93939349,3882.18181779,42.0,42.0,?
2017-06-01 17:51:48.680918,4540.54545409,12.3636363624,4250.51515109,4.1212121208,3916.18181779,8.2424242416,3849.21212083,226.666666644,4246.39393897,201.939393919,4510.1515147,1846.30303012,4152.12121171,3033.21212091,4298.93939351,1660.84848468,4627.60606014,2909.57575728,4251.03030261,3948.12121173,4425.66666622,8.2424242416,4206.72727231,12.3636363624,4836.24242376,8.2424242416,4454.51515107,3882.18181779,42.0,42.0,?
2017-06-01 17:51:48.689200,4540.54545409,12.3636363624,4251.03030261,4.1212121208,3915.15151476,8.2424242416,3848.69696931,226.666666644,4240.21212079,201.939393919,4511.18181773,1846.30303012,4149.54545413,3033.21212091,4298.42424199,1660.84848468,4654.39393893,2909.57575728,4252.57575715,3948.12121173,4429.27272683,8.2424242416,4207.24242382,12.3636363624,4839.84848436,8.2424242416,4458.12121168,3882.18181779,42.0,42.0,?
2017-06-01 17:51:48.695647,4543.12121167,12.3636363624,4248.96969654,4.1212121208,3917.21212082,8.2424242416,3855.39393901,226.666666644,4251.03030261,201.939393919,4512.72727228,1846.30303012,4149.54545413,3033.21212091,4309.75757533,1660.84848468,4682.72727226,2909.57575728,4248.45454503,3948.12121173,4425.15151471,8.2424242416,4204.66666625,12.3636363624,4836.24242376,8.2424242416,4457.09090865,3873.93939355,42.0,42.0,?
2017-06-01 17:51:48.704166,4541.06060561,12.3636363624,4248.45454503,4.1212121208,3917.72727234,0.0,3851.7878784,226.666666644,4262.36363594,201.939393919,4508.60606016,1846.30303012,4155.2121208,3033.21212091,4313.87878745,1660.84848468,4674.99999953,2909.57575728,4240.21212079,3948.12121173,4426.69696925,8.2424242416,4206.72727231,12.3636363624,4838.30302982,8.2424242416,4451.93939349,3873.93939355,42.0,42.0,?
2017-06-01 17:51:48.712292,4539.51515106,12.3636363624,4249.99999958,4.1212121208,3916.69696931,0.0,3849.21212083,226.666666644,4257.7272723,201.939393919,4506.03030258,1846.30303012,4159.84848443,3033.21212091,4304.60606018,1660.84848468,4663.6666662,2909.57575728,4224.75757534,3948.12121173,4426.69696925,8.2424242416,4206.21212079,12.3636363624,4840.87878739,8.2424242416,4442.15151471,3873.93939355,42.0,42.0,?
2017-06-01 17:51:48.719723,4541.57575712,12.3636363624,4251.03030261,4.1212121208,3915.15151476,0.0,3858.4848481,226.666666644,4247.424242,206.06060604,4509.63636319,1846.30303012,4152.12121171,3033.21212091,4308.21212078,1660.84848468,4668.81818135,2909.57575728,4214.45454503,3948.12121173,4423.09090865,8.2424242416,4202.60606019,12.3636363624,4836.24242376,8.2424242416,4436.99999956,3873.93939355,42.0,42.0,?
2017-06-01 17:51:48.726449,4540.03030258,12.3636363624,4248.45454503,4.1212121208,3913.60606021,0.0,3862.0909087,226.666666644,4247.424242,206.06060604,4510.1515147,1858.66666648,4142.84848443,3033.21212091,4307.18181775,1660.84848468,4677.57575711,2909.57575728,4205.18181776,3948.12121173,4426.69696925,8.2424242416,4205.18181776,12.3636363624,4837.7878783,8.2424242416,4442.66666622,3873.93939355,42.0,42.0,?
2017-06-01 17:51:48.734186,4540.03030258,12.3636363624,4248.96969654,4.1212121208,3917.72727234,0.0,3855.39393901,226.666666644,4249.99999958,206.06060604,4508.09090864,1858.66666648,4142.84848443,3045.57575727,4292.24242381,1660.84848468,4679.12121165,2909.57575728,4190.24242382,3948.12121173,4424.63636319,8.2424242416,4206.72727231,12.3636363624,4839.84848436,8.2424242416,4439.57575713,3873.93939355,42.0,42.0,?
2017-06-01 17:51:48.742819,4540.03030258,12.3636363624,4248.96969654,4.1212121208,3918.24242385,0.0,3853.84848446,226.666666644,4247.93939351,206.06060604,4507.06060561,1858.66666648,4152.12121171,3045.57575727,4298.42424199,1652.60606044,4680.6666662,2909.57575728,4188.69696928,3948.12121173,4425.66666622,8.2424242416,4205.69696928,12.3636363624,4838.30302982,8.2424242416,4424.63636319,3873.93939355,42.0,42.0,?
2017-06-01 17:51:48.753378,4538.48484803,12.3636363624,4246.39393897,4.1212121208,3915.66666628,0.0,3856.42424204,226.666666644,4247.424242,206.06060604,4507.06060561,1858.66666648,4150.06060565,3045.57575727,4312.3333329,1652.60606044,4673.45454499,2921.93939365,4191.27272685,3948.12121173,4430.30302986,8.2424242416,4207.24242382,12.3636363624,4838.81818133,8.2424242416,4424.12121168,3873.93939355,42.0,42.0,?
2017-06-01 17:51:48.757746,4540.03030258,12.3636363624,4247.93939351,4.1212121208,3917.72727234,0.0,3852.81818143,226.666666644,4245.36363594,206.06060604,4508.09090864,1858.66666648,4132.03030262,3045.57575727,4299.45454502,1652.60606044,4668.81818135,2921.93939365,4184.06060564,3919.27272688,4423.60606016,8.2424242416,4207.75757534,12.3636363624,4837.7878783,8.2424242416,4437.51515107,3873.93939355,42.0,42.0,?
2017-06-01 17:51:48.778422,4537.454545,12.3636363624,4249.48484806,4.1212121208,3919.27272688,0.0,3850.75757537,226.666666644,4240.7272723,206.06060604,4508.09090864,1858.66666648,4126.36363595,3045.57575727,4288.63636321,1652.60606044,4687.36363589,2921.93939365,4186.63636322,3919.27272688,4423.60606016,12.3636363624,4209.30302988,12.3636363624,4839.84848436,8.2424242416,4436.99999956,3873.93939355,42.0,42.0,?
2017-06-01 17:51:48.781149,4538.99999955,12.3636363624,4250.51515109,4.1212121208,3919.27272688,0.0,3854.87878749,226.666666644,4240.7272723,206.06060604,4510.66666622,1858.66666648,4145.42424201,3045.57575727,4305.12121169,1652.60606044,4699.21212074,2921.93939365,4195.90909049,3919.27272688,4426.18181774,12.3636363624,4209.30302988,0.0,4838.81818133,8.2424242416,4423.60606016,3873.93939355,42.0,42.0,?
2017-06-01 17:51:48.784163,4541.57575712,12.3636363624,4248.96969654,4.1212121208,3917.21212082,0.0,3855.90909052,226.666666644,4239.18181776,206.06060604,4509.12121167,1858.66666648,4147.99999959,3045.57575727,4312.3333329,1652.60606044,4690.45454499,2921.93939365,4190.24242382,3919.27272688,4425.15151471,12.3636363624,4206.21212079,0.0,4836.75757527,4.1212121208,4421.03030259,3873.93939355,42.0,42.0,?
2017-06-01 17:51:48.791679,4539.51515106,12.3636363624,4247.424242,4.1212121208,3914.12121173,0.0,3852.81818143,226.666666644,4239.18181776,206.06060604,4503.454545,1858.66666648,4127.9090905,3045.57575727,4295.3333329,1652.60606044,4685.81818135,2921.93939365,4181.99999958,3915.15151476,4427.72727228,12.3636363624,4204.66666625,0.0,4839.33333285,4.1212121208,4428.2424238,3873.93939355,42.0,42.0,?
2017-06-01 17:51:48.797157,4540.03030258,12.3636363624,4249.99999958,4.1212121208,3916.18181779,0.0,3850.24242386,226.666666644,4241.24242382,206.06060604,4507.06060561,1858.66666648,4128.42424201,3045.57575727,4284.51515109,1652.60606044,4686.33333286,2921.93939365,4177.36363595,3915.15151476,4424.63636319,4.1212121208,4204.15151473,0.0,4836.24242376,4.1212121208,4428.2424238,3873.93939355,42.0,42.0,?
2017-06-01 17:51:48.807057,4536.42424197,12.3636363624,4248.45454503,4.1212121208,3917.21212082,0.0,3850.24242386,226.666666644,4236.60606018,206.06060604,4510.66666622,1858.66666648,4140.78787837,3045.57575727,4283.48484806,1652.60606044,4687.87878741,2921.93939365,4171.69696928,3915.15151476,4426.18181774,4.1212121208,4205.18181776,0.0,4837.27272679,4.1212121208,4422.57575713,3873.93939355,42.0,42.0,?
2017-06-01 17:51:48.812851,4538.99999955,12.3636363624,4246.90909048,4.1212121208,3917.21212082,0.0,3847.66666628,226.666666644,4231.96969655,206.06060604,4508.09090864,1858.66666648,4140.27272686,3045.57575727,4283.48484806,1652.60606044,4689.93939347,2921.93939365,4167.57575716,3915.15151476,4428.2424238,4.1212121208,4206.21212079,0.0,4841.39393891,4.1212121208,4421.03030259,3873.93939355,42.0,42.0,?
2017-06-01 17:51:48.821758,4541.57575712,12.3636363624,4247.93939351,4.1212121208,3916.18181779,0.0,3850.75757537,226.666666644,4237.63636321,206.06060604,4505.51515106,1858.66666648,4136.15151474,3045.57575727,4290.18181775,1652.60606044,4690.9696965,2921.93939365,4169.1212117,3915.15151476,4424.63636319,4.1212121208,4205.69696928,0.0,4836.75757527,4.1212121208,4425.66666622,3873.93939355,42.0,42.0,?
2017-06-01 17:51:48.827822,4542.09090864,12.3636363624,4248.96969654,4.1212121208,3916.69696931,0.0,3857.45454507,226.666666644,4240.21212079,206.06060604,4508.09090864,1858.66666648,4137.18181777,3045.57575727,4289.66666624,1652.60606044,4697.15151468,2921.93939365,4173.24242383,3915.15151476,4428.2424238,4.1212121208,4206.72727231,0.0,4840.36363588,4.1212121208,4434.9393935,3873.93939355,42.0,42.0,?
2017-06-01 17:51:48.835708,4542.09090864,12.3636363624,4248.96969654,4.1212121208,3916.69696931,0.0,3857.45454507,226.666666644,4240.21212079,206.06060604,4508.09090864,1858.66666648,4137.18181777,3045.57575727,4289.66666624,1652.60606044,4697.15151468,2921.93939365,4173.24242383,3915.15151476,4428.2424238,4.1212121208,4206.72727231,0.0,4840.36363588,4.1212121208,4434.9393935,3873.93939355,42.0,42.0,?
2017-06-01 17:51:48.846658,4541.57575712,12.3636363624,4247.424242,4.1212121208,3915.66666628,0.0,3853.84848446,226.666666644,4238.15151473,206.06060604,4507.57575713,1858.66666648,4140.27272686,3045.57575727,4307.69696927,1652.60606044,4712.09090862,2921.93939365,4177.87878746,3915.15151476,4430.30302986,4.1212121208,4206.72727231,0.0,4838.81818133,4.1212121208,4431.33333289,3873.93939355,42.0,42.0,?
2017-06-01 17:51:48.851694,4541.06060561,12.3636363624,4248.96969654,4.1212121208,3913.0909087,0.0,3854.36363598,226.666666644,4237.1212117,206.06060604,4507.57575713,1858.66666648,4135.12121171,3045.57575727,4313.36363593,1652.60606044,4731.15151468,2921.93939365,4178.90909049,3915.15151476,4428.2424238,4.1212121208,4205.69696928,0.0,4839.33333285,4.1212121208,4429.78787834,3873.93939355,42.0,42.0,?
2017-06-01 17:51:48.874259,4541.06060561,12.3636363624,4248.45454503,4.1212121208,3916.18181779,0.0,3854.87878749,226.666666644,4235.06060564,206.06060604,4508.09090864,1858.66666648,4128.42424201,3045.57575727,4283.48484806,1652.60606044,4725.48484801,2921.93939365,4172.21212079,3915.15151476,4425.15151471,4.1212121208,4202.60606019,0.0,4837.7878783,4.1212121208,4429.27272683,3873.93939355,42.0,42.0,?
2017-06-01 17:51:48.878310,4538.48484803,12.3636363624,4244.33333291,4.1212121208,3917.72727234,0.0,3855.90909052,226.666666644,4237.1212117,206.06060604,4506.54545409,1858.66666648,4134.60606019,3045.57575727,4272.15151472,1652.60606044,4704.36363589,2921.93939365,4165.5151511,3915.15151476,4428.75757531,4.1212121208,4203.1212117,0.0,4841.39393891,4.1212121208,4426.18181774,3873.93939355,42.0,42.0,?
2017-06-01 17:51:48.882949,4544.1515147,12.3636363624,4245.36363594,4.1212121208,3919.27272688,0.0,3857.96969658,226.666666644,4236.09090867,206.06060604,4506.54545409,1858.66666648,4136.15151474,3045.57575727,4287.60606018,1652.60606044,4710.54545407,2921.93939365,4160.36363595,3915.15151476,4423.09090865,4.1212121208,4204.66666625,0.0,4834.69696921,4.1212121208,4418.96969653,3873.93939355,42.0,42.0,?
2017-06-01 17:51:48.889479,4542.60606015,12.3636363624,4246.39393897,4.1212121208,3916.69696931,0.0,3862.60606022,226.666666644,4232.99999958,206.06060604,4508.60606016,1858.66666648,4133.06060565,3045.57575727,4288.12121169,1652.60606044,4737.33333286,2921.93939365,4161.39393898,3915.15151476,4426.69696925,4.1212121208,4207.24242382,0.0,4834.1818177,4.1212121208,4416.90909047,3873.93939355,42.0,42.0,?
2017-06-01 17:51:48.893384,4542.09090864,12.3636363624,4248.45454503,4.1212121208,3914.63636324,0.0,3866.72727234,226.666666644,4235.57575715,206.06060604,4510.66666622,1858.66666648,4130.48484807,3045.57575727,4273.18181775,1652.60606044,4729.60606013,2921.93939365,4163.45454504,3915.15151476,4434.9393935,4.1212121208,4208.27272685,0.0,4845.51515103,4.1212121208,4419.48484804,3873.93939355,42.0,42.0,?
2017-06-01 17:51:48.900515,4545.18181773,12.3636363624,4248.96969654,4.1212121208,3917.72727234,0.0,3863.63636325,226.666666644,4233.51515109,206.06060604,4508.60606016,1858.66666648,4126.36363595,3045.57575727,4271.12121169,1652.60606044,4715.18181771,2921.93939365,4159.84848443,3915.15151476,4426.69696925,4.1212121208,4204.66666625,0.0,4838.81818133,4.1212121208,4413.81818138,3873.93939355,42.0,42.0,?
2017-06-01 17:51:48.913094,4540.54545409,12.3636363624,4244.33333291,4.1212121208,3916.69696931,0.0,3861.06060567,226.666666644,4225.78787837,206.06060604,4504.99999955,1858.66666648,4135.12121171,3045.57575727,4290.18181775,1652.60606044,4733.72727225,2921.93939365,4162.42424201,3915.15151476,4424.12121168,4.1212121208,4204.15151473,0.0,4836.75757527,4.1212121208,4409.69696926,3873.93939355,42.0,42.0,?
2017-06-01 17:51:48.917816,4543.12121167,12.3636363624,4249.48484806,4.1212121208,3916.69696931,0.0,3861.57575719,226.666666644,4224.75757534,206.06060604,4507.57575713,1858.66666648,4146.45454504,3045.57575727,4309.75757533,1652.60606044,4757.42424195,2921.93939365,4153.66666625,3915.15151476,4425.66666622,4.1212121208,4206.72727231,0.0,4839.84848436,4.1212121208,4413.81818138,3873.93939355,42.0,42.0,?
2017-06-01 17:51:48.922735,4541.06060561,12.3636363624,4252.57575715,4.1212121208,3917.21212082,0.0,3864.15151477,226.666666644,4229.39393897,206.06060604,4507.06060561,1858.66666648,4142.84848443,3045.57575727,4318.51515108,1652.60606044,4779.5757571,2921.93939365,4131.5151511,3915.15151476,4425.66666622,4.1212121208,4206.72727231,0.0,4837.27272679,4.1212121208,4410.21212077,3873.93939355,42.0,42.0,?
2017-06-01 17:51:48.929760,4536.42424197,12.3636363624,4246.39393897,4.1212121208,3916.18181779,0.0,3867.24242386,226.666666644,4230.424242,206.06060604,4504.99999955,1858.66666648,4137.69696928,3045.57575727,4302.54545412,1652.60606044,4780.60606013,2921.93939365,4134.09090868,3915.15151476,4425.66666622,4.1212121208,4205.69696928,0.0,4836.75757527,4.1212121208,4399.90909047,3873.93939355,42.0,42.0,?
2017-06-01 17:51:48.938269,4540.54545409,12.3636363624,4245.87878745,4.1212121208,3916.69696931,0.0,3866.21212083,226.666666644,4228.36363594,206.06060604,4508.09090864,1858.66666648,4132.54545413,3045.57575727,4266.99999957,1652.60606044,4737.84848437,2921.93939365,4162.93939352,3915.15151476,4424.12121168,4.1212121208,4204.66666625,0.0,4836.24242376,4.1212121208,4402.99999956,3873.93939355,42.0,42.0,?
2017-06-01 17:51:48.950727,4538.48484803,12.3636363624,4248.45454503,4.1212121208,3917.21212082,0.0,3866.72727234,226.666666644,4229.39393897,206.06060604,4510.66666622,1858.66666648,4131.5151511,3045.57575727,4256.69696927,1652.60606044,4718.2727268,2921.93939365,4202.09090867,3915.15151476,4427.72727228,4.1212121208,4205.18181776,0.0,4839.84848436,4.1212121208,4424.63636319,3873.93939355,42.0,42.0,?
2017-06-01 17:51:48.955870,4537.96969652,12.3636363624,4247.93939351,4.1212121208,3917.21212082,0.0,3867.24242386,226.666666644,4234.54545412,206.06060604,4511.18181773,1858.66666648,4149.54545413,3045.57575727,4290.69696927,1652.60606044,4769.2727268,2921.93939365,4250.51515109,3915.15151476,4424.12121168,4.1212121208,4206.72727231,0.0,4837.27272679,4.1212121208,4441.12121168,3873.93939355,42.0,42.0,?
2017-06-01 17:51:48.964131,4538.48484803,12.3636363624,4245.36363594,4.1212121208,3916.18181779,0.0,3860.03030264,226.666666644,4236.09090867,206.06060604,4509.63636319,1858.66666648,4163.96969655,3045.57575727,4313.87878745,1652.60606044,4805.33333285,2921.93939365,4297.90909048,3915.15151476,4427.21212077,4.1212121208,4210.33333291,0.0,4837.7878783,4.1212121208,4447.30302986,3873.93939355,42.0,42.0,?
2017-06-01 17:51:48.974112,4539.51515106,12.3636363624,4244.84848442,4.1212121208,3916.18181779,0.0,3855.90909052,226.666666644,4231.45454503,206.06060604,4508.09090864,1858.66666648,4161.39393898,3045.57575727,4301.51515109,1652.60606044,4798.12121164,2921.93939365,4340.15151472,3915.15151476,4433.90909047,4.1212121208,4211.36363594,0.0,4841.39393891,4.1212121208,4458.63636319,3873.93939355,42.0,42.0,?
2017-06-01 17:51:48.984408,4541.06060561,12.3636363624,4248.45454503,4.1212121208,3917.21212082,0.0,3863.63636325,226.666666644,4231.96969655,206.06060604,4509.12121167,1858.66666648,4165.5151511,3045.57575727,4298.93939351,1652.60606044,4815.63636315,2921.93939365,4385.48484805,3915.15151476,4424.63636319,4.1212121208,4208.27272685,0.0,4835.21212073,4.1212121208,4472.03030258,3873.93939355,42.0,42.0,?
2017-06-01 17:51:48.989160,4540.54545409,12.3636363624,4248.96969654,4.1212121208,3915.66666628,0.0,3872.39393901,226.666666644,4238.66666624,206.06060604,4507.57575713,1858.66666648,4177.87878746,3045.57575727,4316.96969654,1652.60606044,4844.484848,2921.93939365,4420.51515107,3915.15151476,4424.63636319,4.1212121208,4209.8181814,0.0,4838.81818133,4.1212121208,4481.30302985,3873.93939355,42.0,42.0,?
2017-06-01 17:51:48.992021,4541.06060561,12.3636363624,4246.90909048,4.1212121208,3917.72727234,0.0,3870.33333295,226.666666644,4238.66666624,206.06060604,4508.09090864,1858.66666648,4177.36363595,3045.57575727,4326.75757532,1652.60606044,4842.93939346,2921.93939365,4438.5454541,3915.15151476,4427.21212077,4.1212121208,4211.36363594,0.0,4838.81818133,4.1212121208,4486.45454501,3873.93939355,42.0,42.0,?
2017-06-01 17:51:49.001363,4536.93939349,12.3636363624,4244.33333291,4.1212121208,3918.75757537,0.0,3869.81818143,226.666666644,4236.60606018,206.06060604,4510.66666622,1858.66666648,4169.63636322,3045.57575727,4322.12121169,1652.60606044,4839.84848436,2921.93939365,4459.66666622,3915.15151476,4422.57575713,4.1212121208,4209.30302988,0.0,4833.15151467,4.1212121208,4481.81818137,3873.93939355,42.0,42.0,?
2017-06-01 17:51:49.008644,4538.48484803,12.3636363624,4245.87878745,4.1212121208,3917.21212082,0.0,3871.87878749,226.666666644,4240.21212079,206.06060604,4507.06060561,1858.66666648,4172.21212079,3045.57575727,4320.06060563,1652.60606044,4857.87878739,2921.93939365,4485.42424198,3915.15151476,4426.69696925,4.1212121208,4209.30302988,0.0,4837.27272679,4.1212121208,4478.72727228,3873.93939355,42.0,42.0,?
2017-06-01 17:51:49.015725,4544.1515147,12.3636363624,4249.99999958,4.1212121208,3916.18181779,0.0,3868.27272689,226.666666644,4241.24242382,206.06060604,4507.57575713,1858.66666648,4184.57575716,3045.57575727,4323.66666623,1652.60606044,4876.93939345,2921.93939365,4506.03030258,3915.15151476,4421.5454541,4.1212121208,4210.84848443,0.0,4831.60606012,4.1212121208,4492.12121167,3873.93939355,42.0,42.0,?
2017-06-01 17:51:49.024399,4540.54545409,12.3636363624,4248.45454503,4.1212121208,3913.60606021,0.0,3867.75757537,226.666666644,4244.84848442,206.06060604,4510.66666622,1858.66666648,4195.90909049,3045.57575727,4333.45454502,1652.60606044,4894.45454497,2921.93939365,4527.1515147,3915.15151476,4422.06060562,4.1212121208,4211.36363594,0.0,4829.54545406,4.1212121208,4502.42424197,3873.93939355,42.0,42.0,?
2017-06-01 17:51:49.030722,4540.03030258,12.3636363624,4246.90909048,4.1212121208,3914.12121173,0.0,3869.81818143,226.666666644,4247.93939351,206.06060604,4512.72727228,1858.66666648,4196.424242,3045.57575727,4342.72727229,1652.60606044,4902.69696921,2921.93939365,4541.57575712,3915.15151476,4425.15151471,4.1212121208,4211.36363594,0.0,4835.72727224,4.1212121208,4489.03030258,3873.93939355,42.0,42.0,?
2017-06-01 17:51:49.038711,4537.96969652,12.3636363624,4247.93939351,4.1212121208,3914.12121173,0.0,3865.1818178,226.666666644,4244.84848442,206.06060604,4511.69696925,1858.66666648,4198.99999958,3045.57575727,4336.0303026,1652.60606044,4892.90909042,2921.93939365,4540.54545409,3915.15151476,4418.96969653,4.1212121208,4212.39393897,0.0,4835.72727224,4.1212121208,4473.06060561,3873.93939355,42.0,42.0,?
2017-06-01 17:51:49.049319,4535.90909046,12.3636363624,4247.424242,4.1212121208,3914.63636324,0.0,3863.12121173,226.666666644,4242.27272685,206.06060604,4506.54545409,1858.66666648,4205.18181776,3045.57575727,4330.87878745,1652.60606044,4900.12121163,2921.93939365,4536.93939349,3915.15151476,4425.66666622,4.1212121208,4213.93939352,0.0,4837.27272679,4.1212121208,4474.60606016,3873.93939355,42.0,42.0,?
2017-06-01 17:51:49.055735,4537.96969652,12.3636363624,4248.45454503,4.1212121208,3917.72727234,0.0,3864.15151477,226.666666644,4242.27272685,206.06060604,4509.12121167,1858.66666648,4197.96969655,3045.57575727,4334.48484805,1652.60606044,4916.60606011,2921.93939365,4538.48484803,3915.15151476,4421.5454541,4.1212121208,4212.39393897,0.0,4832.63636315,4.1212121208,4472.5454541,3873.93939355,42.0,42.0,?
2017-06-01 17:51:49.064336,4535.39393894,12.3636363624,4249.48484806,4.1212121208,3915.66666628,0.0,3861.06060567,226.666666644,4246.90909048,206.06060604,4513.75757531,1858.66666648,4193.33333291,3045.57575727,4337.06060563,1652.60606044,4914.03030254,2921.93939365,4553.42424197,3915.15151476,4422.06060562,4.1212121208,4210.84848443,0.0,4836.75757527,4.1212121208,4460.69696925,3873.93939355,42.0,42.0,?
2017-06-01 17:51:49.071656,4536.93939349,12.3636363624,4249.48484806,4.1212121208,3914.63636324,0.0,3856.93939355,226.666666644,4245.36363594,206.06060604,4510.66666622,1858.66666648,4194.87878746,3045.57575727,4335.51515108,1652.60606044,4917.63636314,2921.93939365,4561.1515147,3915.15151476,4429.27272683,4.1212121208,4208.27272685,0.0,4839.84848436,4.1212121208,4450.39393895,3873.93939355,42.0,42.0,?
2017-06-01 17:51:49.078490,4533.8484844,12.3636363624,4249.48484806,4.1212121208,3914.12121173,0.0,3856.93939355,226.666666644,4236.60606018,206.06060604,4507.06060561,1858.66666648,4191.78787837,3045.57575727,4333.45454502,1652.60606044,4933.60606011,2921.93939365,4544.66666621,3915.15151476,4422.06060562,4.1212121208,4209.30302988,0.0,4832.63636315,4.1212121208,4446.78787834,3873.93939355,42.0,42.0,?
2017-06-01 17:51:49.085765,4535.90909046,12.3636363624,4248.96969654,4.1212121208,3916.18181779,0.0,3861.57575719,226.666666644,4237.1212117,206.06060604,4506.54545409,1858.66666648,4198.48484806,3045.57575727,4336.0303026,1652.60606044,4943.90909041,2921.93939365,4530.7575753,3915.15151476,4428.2424238,4.1212121208,4213.424242,0.0,4835.21212073,4.1212121208,4457.60606016,3873.93939355,42.0,42.0,?
2017-06-01 17:51:49.095344,4540.03030258,12.3636363624,4248.96969654,4.1212121208,3917.21212082,0.0,3862.60606022,226.666666644,4246.90909048,206.06060604,4508.60606016,1858.66666648,4213.93939352,3045.57575727,4348.39393896,1652.60606044,4957.81818132,2921.93939365,4536.42424197,3915.15151476,4424.63636319,4.1212121208,4211.36363594,0.0,4835.72727224,4.1212121208,4462.75757531,3873.93939355,42.0,42.0,?
2017-06-01 17:51:49.103918,4535.39393894,12.3636363624,4249.48484806,4.1212121208,3913.0909087,0.0,3859.51515113,226.666666644,4250.51515109,206.06060604,4512.21212076,1858.66666648,4214.45454503,3045.57575727,4372.60606017,1652.60606044,4984.60606011,2921.93939365,4541.57575712,3915.15151476,4421.5454541,4.1212121208,4209.30302988,0.0,4837.7878783,4.1212121208,4449.87878743,3873.93939355,42.0,42.0,?
2017-06-01 17:51:49.109903,4540.03030258,12.3636363624,4251.03030261,4.1212121208,3915.15151476,0.0,3856.93939355,226.666666644,4244.33333291,206.06060604,4509.12121167,1858.66666648,4203.1212117,3045.57575727,4368.48484805,1652.60606044,4978.42424193,2921.93939365,4521.99999955,3915.15151476,4431.33333289,4.1212121208,4210.84848443,0.0,4839.33333285,4.1212121208,4444.72727228,3873.93939355,42.0,42.0,?
2017-06-01 17:51:49.117480,4536.42424197,12.3636363624,4250.51515109,4.1212121208,3916.69696931,0.0,3860.03030264,226.666666644,4242.27272685,206.06060604,4507.57575713,1858.66666648,4198.99999958,3045.57575727,4332.42424199,1652.60606044,4938.24242375,2921.93939365,4493.66666622,3915.15151476,4423.09090865,4.1212121208,4211.36363594,0.0,4832.12121164,4.1212121208,4445.75757531,3873.93939355,42.0,42.0,?
2017-06-01 17:51:49.127748,4535.90909046,12.3636363624,4247.93939351,4.1212121208,3917.72727234,0.0,3866.72727234,226.666666644,4251.03030261,206.06060604,4512.21212076,1858.66666648,4204.66666625,3045.57575727,4326.75757532,1652.60606044,4940.30302981,2921.93939365,4486.45454501,3915.15151476,4426.69696925,4.1212121208,4211.36363594,0.0,4837.27272679,4.1212121208,4443.69696925,3873.93939355,42.0,42.0,?
2017-06-01 17:51:49.133310,4541.57575712,12.3636363624,4248.96969654,4.1212121208,3916.69696931,0.0,3863.63636325,226.666666644,4246.90909048,206.06060604,4510.1515147,1858.66666648,4207.24242382,3045.57575727,4350.45454502,1652.60606044,4975.33333284,2921.93939365,4482.8484844,3915.15151476,4428.75757531,4.1212121208,4209.8181814,0.0,4841.39393891,4.1212121208,4444.21212077,3873.93939355,42.0,42.0,?
2017-06-01 17:51:49.140726,4533.8484844,12.3636363624,4250.51515109,4.1212121208,3912.06060567,0.0,3857.45454507,226.666666644,4232.99999958,206.06060604,4507.06060561,1858.66666648,4203.1212117,3045.57575727,4343.75757532,1652.60606044,4968.12121162,2921.93939365,4461.21212077,3915.15151476,4422.06060562,4.1212121208,4208.78787837,0.0,4837.7878783,4.1212121208,4441.63636319,3873.93939355,42.0,42.0,?
2017-06-01 17:51:49.151059,4537.96969652,12.3636363624,4249.48484806,4.1212121208,3916.69696931,0.0,3858.4848481,226.666666644,4237.63636321,206.06060604,4512.21212076,1858.66666648,4203.63636322,3045.57575727,4325.21212078,1652.60606044,4944.42424193,2921.93939365,4436.48484804,3915.15151476,4428.2424238,4.1212121208,4209.30302988,0.0,4837.27272679,4.1212121208,4435.45454501,3873.93939355,42.0,42.0,?
2017-06-01 17:51:49.157282,4538.48484803,12.3636363624,4247.93939351,4.1212121208,3917.72727234,0.0,3864.66666628,226.666666644,4245.87878745,206.06060604,4512.72727228,1858.66666648,4210.33333291,3045.57575727,4341.18181775,1652.60606044,4958.33333284,2921.93939365,4418.45454501,3915.15151476,4422.57575713,4.1212121208,4207.24242382,0.0,4836.24242376,4.1212121208,4427.21212077,3873.93939355,42.0,42.0,?
2017-06-01 17:51:49.165480,4534.87878743,12.3636363624,4247.424242,4.1212121208,3916.18181779,0.0,3868.7878784,226.666666644,4240.7272723,206.06060604,4507.06060561,1858.66666648,4212.90909049,3045.57575727,4356.6363632,1652.60606044,4973.27272678,2921.93939365,4399.39393895,3915.15151476,4422.06060562,4.1212121208,4207.75757534,0.0,4837.27272679,4.1212121208,4428.75757531,3873.93939355,42.0,42.0,?
2017-06-01 17:51:49.172647,4538.99999955,12.3636363624,4247.93939351,4.1212121208,3915.15151476,0.0,3869.30302992,226.666666644,4238.15151473,206.06060604,4508.09090864,1858.66666648,4207.75757534,3045.57575727,4342.21212078,1652.60606044,4965.03030253,2921.93939365,4384.96969653,3915.15151476,4426.69696925,4.1212121208,4208.78787837,0.0,4837.27272679,4.1212121208,4435.45454501,3873.93939355,42.0,42.0,?
2017-06-01 17:51:49.180105,4534.87878743,12.3636363624,4248.45454503,4.1212121208,3913.60606021,0.0,3867.24242386,226.666666644,4244.33333291,206.06060604,4508.09090864,1858.66666648,4202.60606019,3045.57575727,4330.87878745,1652.60606044,4964.51515102,2921.93939365,4374.66666623,3915.15151476,4425.15151471,4.1212121208,4208.27272685,0.0,4838.81818133,4.1212121208,4433.39393895,3873.93939355,42.0,42.0,?
2017-06-01 17:51:49.193981,4541.06060561,12.3636363624,4248.45454503,4.1212121208,3917.72727234,0.0,3864.66666628,226.666666644,4248.96969654,206.06060604,4509.12121167,1858.66666648,4208.78787837,3045.57575727,4339.12121169,1652.60606044,4968.63636314,2921.93939365,4350.96969653,3915.15151476,4425.15151471,4.1212121208,4208.27272685,0.0,4837.27272679,4.1212121208,4430.81818138,3873.93939355,42.0,42.0,?
