Timestamp,F3 Value,F3 Quality,FC5 Value,FC5 Quality,F7 Value,F7 Quality,T7 Value,T7 Quality,P7 Value,P7 Quality,O1 Value,O1 Quality,O2 Value,O2 Quality,P8 Value,P8 Quality,T8 Value,T8 Quality,F8 Value,F8 Quality,AF4 Value,AF4 Quality,FC6 Value,FC6 Quality,F4 Value,F4 Quality,AF3 Value,AF3 Quality,X Value,Y Value,Z Value
2017-06-01 17:49:15.325942,4538.99999955,0,4330.87878745,0,3913.0909087,0,3977.48484809,0,4363.84848441,0,4575.57575712,0,4316.45454502,0,4416.39393895,0,5035.09090859,0,4271.63636321,0,4425.66666622,0,4215.48484806,0,4841.39393891,0,4578.66666621,0,42.0,42.0,?
2017-06-01 17:49:15.328832,4541.06060561,0,4272.66666624,0,3920.30302991,0,3912.06060567,0,4334.48484805,0,4514.78787834,0,4241.24242382,0,4383.42424199,0,5040.24242374,0,4170.66666625,0,4428.75757531,0,4207.24242382,0,4840.87878739,0,4492.12121167,0,42.0,42.0,?
2017-06-01 17:49:15.331738,4541.06060561,0,4272.66666624,0,3917.72727234,0,3904.84848446,0,4334.48484805,0,4512.72727228,0,4243.30302988,0,4378.27272683,0,5040.24242374,0,4159.84848443,0,4419.48484804,0,4207.24242382,0,4838.30302982,0,4485.93939349,0,42.0,42.0,?
2017-06-01 17:49:15.335123,4543.12121167,0,4274.21212078,0,3917.21212082,0,3900.72727234,0,4331.39393896,0,4512.21212076,0,4246.39393897,0,4378.78787835,0,5043.33333283,0,4166.03030261,0,4426.69696925,0,4211.36363594,0,4849.63636315,0,4485.93939349,0,42.0,42.0,?
2017-06-01 17:49:15.339777,4543.63636318,0,4275.75757533,0,3919.7878784,0,3905.87878749,0,4333.96969654,0,4512.72727228,0,4245.87878745,0,4382.90909047,0,5043.33333283,0,4170.66666625,0,4418.45454501,0,4210.84848443,0,4838.81818133,0,4481.81818137,0,42.0,42.0,?
2017-06-01 17:49:15.343080,4540.54545409,0,4275.24242381,0,3917.72727234,0,3905.87878749,0,4335.51515108,0,4510.66666622,0,4243.81818139,0,4381.87878744,0,5038.18181768,0,4162.93939352,0,4422.06060562,0,4209.30302988,0,4837.7878783,0,4473.57575713,0,42.0,42.0,?
2017-06-01 17:49:15.346276,4542.60606015,0,4273.69696927,0,3917.72727234,0,3900.21212082,0,4330.36363593,0,4510.66666622,0,4236.60606018,0,4374.15151471,0,5038.18181768,0,4155.72727231,0,4429.27272683,0,4210.33333291,0,4843.96969649,0,4470.48484804,0,42.0,42.0,?
2017-06-01 17:49:15.350807,4541.57575712,0,4271.63636321,0,3919.27272688,0,3899.18181779,0,4328.30302987,0,4509.63636319,0,4226.8181814,0,4369.51515108,0,5039.72727222,0,4160.36363595,0,4419.99999956,0,4207.75757534,0,4830.57575709,0,4476.1515147,0,42.0,42.0,?
2017-06-01 17:49:15.357353,4541.57575712,0,4273.18181775,0,3919.27272688,0,3902.27272688,0,4330.36363593,0,4508.60606016,0,4225.27272685,0,4373.6363632,0,5037.15151465,0,4165.5151511,0,4433.90909047,0,4207.75757534,0,4846.03030255,0,4483.36363592,0,42.0,42.0,?
2017-06-01 17:49:15.359744,4542.60606015,0,4273.69696927,0,3918.24242385,0,3906.90909052,0,4336.0303026,0,4511.69696925,0,4229.90909049,0,4377.2424238,0,5037.15151465,0,4167.06060564,0,4428.75757531,0,4209.8181814,0,4843.96969649,0,4483.87878743,0,42.0,42.0,?
2017-06-01 17:49:15.362758,4541.57575712,0,4273.18181775,0,3917.21212082,0,3913.0909087,0,4342.21212078,0,4514.27272682,0,4235.57575715,0,4380.84848441,0,5040.24242374,0,4173.75757534,0,4422.57575713,0,4210.84848443,0,4836.75757527,0,4488.51515107,0,42.0,42.0,?
2017-06-01 17:49:15.365715,4544.66666621,0.0,4275.75757533,0,3916.18181779,0,3913.60606021,0,4346.84848441,0,4512.72727228,0,4238.15151473,0,4382.39393896,0,5042.81818131,0,4179.93939352,0,4429.27272683,0,4209.8181814,0,4849.12121164,0,4494.69696925,0,42.0,42.0,?
2017-06-01 17:49:15.370111,4544.66666621,0.0,4274.21212078,8.2424242416,3914.63636324,0,3911.54545415,0,4345.81818138,0,4511.69696925,0,4235.06060564,0,4378.78787835,0,5043.33333283,0,4175.30302989,0,4419.99999956,0,4208.78787837,0,4837.7878783,0,4486.45454501,0,42.0,42.0,?
2017-06-01 17:49:15.373294,4543.63636318,0.0,4272.66666624,8.2424242416,3916.18181779,0,3911.54545415,0,4337.06060563,0,4509.12121167,0,4229.90909049,0,4375.18181774,0,5040.24242374,0,4168.60606019,0,4428.2424238,0,4211.36363594,0,4841.90909042,0,4472.5454541,3861.57575719,42.0,42.0,?
2017-06-01 17:49:15.377557,4541.57575712,0.0,4275.24242381,8.2424242416,3917.21212082,8.2424242416,3909.48484809,0,4329.84848442,0,4507.57575713,0,4227.33333291,0,4372.60606017,0,5038.18181768,0,4163.45454504,0,4426.18181774,0,4209.30302988,0,4844.99999952,0,4463.78787834,3861.57575719,42.0,42.0,?
2017-06-01 17:49:15.380692,4539.51515106,0.0,4276.27272685,8.2424242416,3916.18181779,8.2424242416,3909.48484809,201.939393919,4329.3333329,0,4509.12121167,0,4227.33333291,0,4370.54545411,0,5038.69696919,0,4159.33333292,0,4420.51515107,0,4208.27272685,0,4837.7878783,0,4462.75757531,3861.57575719,42.0,42.0,?
2017-06-01 17:49:15.385919,4542.60606015,0.0,4274.7272723,8.2424242416,3916.18181779,8.2424242416,3911.03030264,201.939393919,4332.93939351,197.818181798,4508.60606016,0,4224.24242382,0,4373.12121168,0,5040.75757525,0,4166.03030261,0,4428.75757531,0,4212.39393897,0,4844.484848,0,4471.51515107,3861.57575719,42.0,42.0,?
2017-06-01 17:49:15.394127,4541.06060561,0.0,4274.21212078,8.2424242416,3919.7878784,8.2424242416,3914.12121173,201.939393919,4335.51515108,197.818181798,4507.06060561,3169.2121209,4222.69696927,0,4380.3333329,0,5045.39393889,0,4182.5151511,0,4421.5454541,0,4209.30302988,0,4839.33333285,0,4480.27272682,3861.57575719,42.0,42.0,?
2017-06-01 17:49:15.399624,4543.12121167,0.0,4274.7272723,8.2424242416,3920.81818143,8.2424242416,3915.15151476,201.939393919,4336.0303026,197.818181798,4508.09090864,3169.2121209,4225.27272685,3045.57575727,4381.36363593,0,5052.6060601,0,4191.27272685,0,4428.2424238,0,4207.24242382,0,4843.45454497,0,4482.33333289,3861.57575719,42.0,42.0,?
2017-06-01 17:49:15.408308,4547.24242379,0.0,4273.69696927,8.2424242416,3918.24242385,8.2424242416,3911.54545415,201.939393919,4334.99999957,197.818181798,4510.1515147,3169.2121209,4229.39393897,3045.57575727,4378.78787835,1693.81818165,5051.57575707,0,4185.60606019,0,4430.30302986,0,4209.8181814,0,4841.90909042,0,4483.87878743,3861.57575719,42.0,42.0,?
2017-06-01 17:49:15.414696,4544.66666621,0.0,4272.66666624,8.2424242416,3917.21212082,8.2424242416,3911.03030264,201.939393919,4338.09090866,197.818181798,4509.12121167,3169.2121209,4238.15151473,3045.57575727,4381.36363593,1693.81818165,5042.3030298,2855.99999971,4188.18181776,0,4422.57575713,0,4209.8181814,0,4834.69696921,0,4486.45454501,3861.57575719,42.0,42.0,?
2017-06-01 17:49:15.426227,4544.1515147,0.0,4274.7272723,8.2424242416,3918.24242385,8.2424242416,3914.12121173,201.939393919,4344.27272684,197.818181798,4510.1515147,3169.2121209,4241.24242382,3045.57575727,4383.9393935,1693.81818165,5040.24242374,2855.99999971,4192.8181814,3985.21212081,4428.2424238,0,4210.33333291,0,4847.06060558,0,4484.39393895,3861.57575719,42.0,42.0,?
2017-06-01 17:49:15.432163,4540.54545409,0.0,4274.7272723,8.2424242416,3918.75757537,8.2424242416,3915.15151476,201.939393919,4344.78787835,197.818181798,4512.21212076,3169.2121209,4229.39393897,3045.57575727,4379.30302987,1693.81818165,5043.33333283,2855.99999971,4185.09090867,3985.21212081,4422.06060562,12.3636363624,4207.75757534,0,4840.36363588,0,4480.27272682,3861.57575719,42.0,42.0,?
2017-06-01 17:49:15.438840,4538.99999955,0.0,4274.21212078,8.2424242416,3917.21212082,8.2424242416,3913.60606021,201.939393919,4341.18181775,197.818181798,4510.66666622,3169.2121209,4219.60606018,3045.57575727,4375.18181774,1693.81818165,5039.72727222,2855.99999971,4178.90909049,3985.21212081,4425.66666622,12.3636363624,4207.75757534,0.0,4839.84848436,0,4477.69696925,3861.57575719,42.0,42.0,?
2017-06-01 17:49:15.465799,4541.06060561,0.0,4273.69696927,8.2424242416,3916.18181779,8.2424242416,3910.51515112,201.939393919,4337.57575714,197.818181798,4510.1515147,3169.2121209,4219.09090867,3045.57575727,4377.2424238,1693.81818165,5034.57575707,2855.99999971,4184.06060564,3985.21212081,4427.21212077,12.3636363624,4209.30302988,0.0,4845.51515103,12.3636363624,4481.30302985,3861.57575719,42.0,42.0,?
2017-06-01 17:49:15.469717,4538.99999955,0.0,4272.66666624,8.2424242416,3916.18181779,8.2424242416,3908.96969658,201.939393919,4335.51515108,197.818181798,4510.1515147,3169.2121209,4219.09090867,3045.57575727,4378.78787835,1693.81818165,5034.57575707,2855.99999971,4189.21212079,3985.21212081,4421.03030259,12.3636363624,4208.78787837,0.0,4839.84848436,12.3636363624,4484.39393895,3861.57575719,42.0,42.0,?
2017-06-01 17:49:15.473098,4543.63636318,0.0,4274.7272723,8.2424242416,3917.72727234,8.2424242416,3914.63636324,201.939393919,4331.90909048,197.818181798,4508.09090864,3169.2121209,4223.7272723,3045.57575727,4379.81818138,1693.81818165,5042.3030298,2855.99999971,4190.75757534,3985.21212081,4428.75757531,12.3636363624,4209.8181814,0.0,4848.09090861,12.3636363624,4484.90909046,3861.57575719,42.0,42.0,?
2017-06-01 17:49:15.480448,4544.66666621,0.0,4275.24242381,8.2424242416,3918.24242385,8.2424242416,3911.54545415,201.939393919,4328.30302987,197.818181798,4510.1515147,3169.2121209,4230.93939352,3045.57575727,4384.45454502,1693.81818165,5051.06060556,2855.99999971,4196.93939352,3985.21212081,4423.09090865,12.3636363624,4207.75757534,0.0,4842.93939346,12.3636363624,4488.51515107,3861.57575719,42.0,42.0,?
2017-06-01 17:49:15.486958,4543.12121167,0.0,4273.69696927,8.2424242416,3915.66666628,8.2424242416,3900.72727234,201.939393919,4331.90909048,197.818181798,4511.18181773,3169.2121209,4228.87878746,3045.57575727,4384.96969653,1693.81818165,5043.84848434,2855.99999971,4201.06060564,3985.21212081,4424.63636319,12.3636363624,4209.30302988,0.0,4840.36363588,12.3636363624,4490.57575713,3861.57575719,42.0,42.0,?
2017-06-01 17:49:15.490160,4543.63636318,0.0,4275.24242381,8.2424242416,3916.18181779,8.2424242416,3900.72727234,201.939393919,4338.09090866,197.818181798,4512.21212076,3169.2121209,4226.30302988,3045.57575727,4375.69696926,1693.81818165,5025.3030298,2855.99999971,4188.69696928,3985.21212081,4429.78787834,12.3636363624,4212.39393897,0.0,4844.484848,12.3636363624,4484.39393895,3861.57575719,42.0,42.0,?
2017-06-01 17:49:15.493485,4540.03030258,0.0,4274.7272723,8.2424242416,3917.72727234,8.2424242416,3904.33333294,201.939393919,4341.18181775,197.818181798,4518.39393894,3169.2121209,4237.1212117,3045.57575727,4374.66666623,1693.81818165,5025.3030298,2855.99999971,4173.75757534,3985.21212081,4422.57575713,12.3636363624,4208.27272685,0.0,4837.27272679,12.3636363624,4469.96969652,3861.57575719,42.0,42.0,?
2017-06-01 17:49:15.502464,4540.54545409,0.0,4274.7272723,8.2424242416,3916.69696931,8.2424242416,3899.69696931,201.939393919,4343.24242381,197.818181798,4520.96969652,3169.2121209,4248.45454503,3045.57575727,4384.96969653,1693.81818165,5039.21212071,2855.99999971,4173.75757534,3985.21212081,4428.2424238,12.3636363624,4209.30302988,0.0,4846.03030255,12.3636363624,4459.15151471,3861.57575719,42.0,42.0,?
2017-06-01 17:49:15.516221,4542.09090864,0.0,4275.24242381,8.2424242416,3917.21212082,8.2424242416,3896.60606022,201.939393919,4338.60606017,197.818181798,4512.72727228,3169.2121209,4236.09090867,3045.57575727,4376.72727229,1693.81818165,5032.51515101,2855.99999971,4175.30302989,3985.21212081,4421.03030259,12.3636363624,4209.8181814,0.0,4843.45454497,12.3636363624,4458.63636319,3861.57575719,42.0,42.0,?
2017-06-01 17:49:15.521508,4540.54545409,0.0,4274.7272723,8.2424242416,3919.27272688,8.2424242416,3897.63636325,201.939393919,4327.78787836,197.818181798,4508.09090864,3169.2121209,4212.39393897,3045.57575727,4356.12121169,1693.81818165,5008.81818132,2855.99999971,4167.57575716,3985.21212081,4422.57575713,12.3636363624,4208.78787837,0.0,4837.7878783,12.3636363624,4459.66666622,3861.57575719,42.0,42.0,?
2017-06-01 17:49:15.526006,4543.12121167,0.0,4273.18181775,8.2424242416,3920.30302991,8.2424242416,3895.57575719,201.939393919,4323.15151472,197.818181798,4510.66666622,3169.2121209,4200.03030261,3045.57575727,4351.48484805,1693.81818165,4995.42424192,2855.99999971,4164.48484807,3985.21212081,4430.81818138,12.3636363624,4210.33333291,0.0,4843.96969649,12.3636363624,4452.96969652,3861.57575719,42.0,42.0,?
2017-06-01 17:49:15.532480,4543.63636318,0.0,4272.66666624,8.2424242416,3919.27272688,8.2424242416,3894.54545416,201.939393919,4324.18181775,197.818181798,4509.63636319,3169.2121209,4192.30302988,3045.57575727,4355.09090866,1693.81818165,5003.66666617,2855.99999971,4161.39393898,3985.21212081,4421.5454541,12.3636363624,4208.27272685,0.0,4838.81818133,12.3636363624,4446.27272683,3861.57575719,42.0,42.0,?
2017-06-01 17:49:15.540030,4541.57575712,0.0,4273.69696927,8.2424242416,3919.7878784,8.2424242416,3897.12121173,201.939393919,4323.66666623,197.818181798,4508.09090864,3169.2121209,4190.75757534,3045.57575727,4356.6363632,1693.81818165,5021.69696919,2855.99999971,4159.84848443,3985.21212081,4427.72727228,12.3636363624,4207.24242382,0.0,4846.03030255,12.3636363624,4452.45454501,3861.57575719,42.0,42.0,?
2017-06-01 17:49:15.547741,4538.99999955,0.0,4273.18181775,8.2424242416,3918.24242385,8.2424242416,3895.57575719,201.939393919,4321.60606017,197.818181798,4510.66666622,3169.2121209,4203.63636322,3045.57575727,4360.75757532,1693.81818165,5022.72727222,2855.99999971,4166.54545413,3985.21212081,4425.66666622,12.3636363624,4207.75757534,0.0,4841.90909042,12.3636363624,4459.66666622,3861.57575719,42.0,42.0,?
2017-06-01 17:49:15.556294,4539.51515106,0.0,4272.15151472,8.2424242416,3914.63636324,8.2424242416,3896.0909087,201.939393919,4319.54545411,197.818181798,4511.18181773,3169.2121209,4212.90909049,3045.57575727,4360.24242381,1693.81818165,5006.75757526,2855.99999971,4172.21212079,3985.21212081,4424.12121168,12.3636363624,4207.75757534,0.0,4834.1818177,12.3636363624,4456.06060561,3861.57575719,42.0,42.0,?
2017-06-01 17:49:15.563740,4543.63636318,0.0,4273.18181775,8.2424242416,3915.66666628,8.2424242416,3897.63636325,201.939393919,4321.09090866,197.818181798,4511.18181773,3169.2121209,4210.84848443,3045.57575727,4357.15151472,1693.81818165,5002.12121162,2855.99999971,4171.18181776,3985.21212081,4432.87878744,12.3636363624,4209.8181814,0.0,4842.42424194,12.3636363624,4454.51515107,3861.57575719,42.0,42.0,?
2017-06-01 17:49:15.573482,4540.54545409,0.0,4273.69696927,8.2424242416,3918.75757537,8.2424242416,3897.63636325,201.939393919,4328.81818139,197.818181798,4511.69696925,3169.2121209,4213.93939352,3045.57575727,4362.30302987,1693.81818165,5016.54545404,2855.99999971,4164.99999958,3985.21212081,4422.57575713,12.3636363624,4210.33333291,0.0,4837.7878783,12.3636363624,4452.96969652,3861.57575719,42.0,42.0,?
2017-06-01 17:49:15.580038,4540.03030258,0.0,4274.7272723,8.2424242416,3919.7878784,8.2424242416,3897.12121173,201.939393919,4331.39393896,197.818181798,4514.27272682,3169.2121209,4219.09090867,3045.57575727,4365.39393896,1693.81818165,5024.27272677,2855.99999971,4164.99999958,3985.21212081,4426.18181774,12.3636363624,4211.36363594,0.0,4842.42424194,12.3636363624,4451.42424198,3861.57575719,42.0,42.0,?
2017-06-01 17:49:15.589941,4542.09090864,0.0,4274.7272723,8.2424242416,3917.21212082,8.2424242416,3896.60606022,201.939393919,4324.69696926,197.818181798,4514.27272682,3169.2121209,4216.51515109,3045.57575727,4358.69696926,1693.81818165,5012.42424192,2855.99999971,4170.66666625,3985.21212081,4427.72727228,12.3636363624,4209.30302988,0.0,4840.87878739,12.3636363624,4449.87878743,3861.57575719,42.0,42.0,?
2017-06-01 17:49:15.599823,4540.54545409,0.0,4274.21212078,8.2424242416,3914.63636324,8.2424242416,3896.0909087,201.939393919,4323.66666623,197.818181798,4510.1515147,3169.2121209,4215.48484806,3045.57575727,4359.21212078,1693.81818165,5003.66666617,2855.99999971,4175.8181814,3985.21212081,4424.12121168,12.3636363624,4207.24242382,0.0,4835.21212073,12.3636363624,4448.8484844,3861.57575719,42.0,42.0,?
2017-06-01 17:49:15.607620,4542.09090864,0.0,4275.75757533,8.2424242416,3918.24242385,8.2424242416,3896.60606022,201.939393919,4326.75757532,197.818181798,4510.1515147,3169.2121209,4220.63636321,3045.57575727,4368.99999956,1693.81818165,5013.96969647,2855.99999971,4178.90909049,3985.21212081,4430.30302986,12.3636363624,4209.8181814,0.0,4846.54545406,12.3636363624,4453.48484804,3861.57575719,42.0,42.0,?
2017-06-01 17:49:15.610682,4540.54545409,0.0,4274.7272723,8.2424242416,3918.24242385,8.2424242416,3896.60606022,201.939393919,4324.69696926,197.818181798,4512.72727228,3169.2121209,4230.424242,3045.57575727,4373.12121168,1693.81818165,5025.3030298,2855.99999971,4179.93939352,3985.21212081,4422.06060562,12.3636363624,4208.78787837,0.0,4841.39393891,12.3636363624,4460.18181774,3861.57575719,42.0,42.0,?
2017-06-01 17:49:15.618236,4538.99999955,0.0,4273.69696927,8.2424242416,3915.15151476,8.2424242416,3895.06060567,201.939393919,4321.60606017,197.818181798,4511.69696925,3169.2121209,4239.69696927,3045.57575727,4370.54545411,1693.81818165,5021.69696919,2855.99999971,4179.42424201,3985.21212081,4427.72727228,12.3636363624,4209.8181814,0.0,4842.93939346,12.3636363624,4460.18181774,3861.57575719,42.0,42.0,?
2017-06-01 17:49:15.625757,4543.63636318,0.0,4275.75757533,8.2424242416,3917.21212082,8.2424242416,3892.99999961,201.939393919,4320.06060563,197.818181798,4511.69696925,3169.2121209,4233.51515109,3045.57575727,4364.87878744,1693.81818165,5013.45454495,2855.99999971,4175.8181814,3985.21212081,4431.33333289,12.3636363624,4210.84848443,0.0,4844.99999952,12.3636363624,4455.03030258,3861.57575719,42.0,42.0,?
2017-06-01 17:49:15.635765,4545.18181773,0.0,4276.27272685,8.2424242416,3918.24242385,8.2424242416,3892.99999961,201.939393919,4317.99999957,197.818181798,4513.75757531,3169.2121209,4221.15151473,3045.57575727,4361.78787835,1693.81818165,5011.39393889,2855.99999971,4176.84848443,3985.21212081,4423.60606016,12.3636363624,4209.30302988,0.0,4835.72727224,12.3636363624,4454.51515107,3861.57575719,42.0,42.0,?
2017-06-01 17:49:15.642240,4544.66666621,0.0,4274.21212078,8.2424242416,3916.18181779,8.2424242416,3894.03030264,201.939393919,4319.0303026,197.818181798,4513.24242379,3169.2121209,4224.24242382,3045.57575727,4363.84848441,1693.81818165,5012.42424192,2855.99999971,4178.39393898,3985.21212081,4428.75757531,12.3636363624,4212.39393897,0.0,4842.93939346,12.3636363624,4458.12121168,3861.57575719,42.0,42.0,?
2017-06-01 17:49:15.649738,4542.09090864,0.0,4272.66666624,8.2424242416,3916.18181779,8.2424242416,3896.60606022,201.939393919,4323.66666623,197.818181798,4513.75757531,3169.2121209,4235.06060564,3045.57575727,4366.9393935,1693.81818165,5014.9999995,2855.99999971,4170.15151473,3985.21212081,4424.12121168,12.3636363624,4211.87878746,0.0,4839.33333285,12.3636363624,4460.69696925,3861.57575719,42.0,42.0,?
2017-06-01 17:49:15.659596,4540.54545409,0.0,4274.21212078,8.2424242416,3917.72727234,8.2424242416,3897.63636325,201.939393919,4326.24242381,197.818181798,4512.72727228,3169.2121209,4240.21212079,3045.57575727,4371.06060562,1693.81818165,5017.06060556,2855.99999971,4164.48484807,3985.21212081,4427.21212077,12.3636363624,4210.33333291,0.0,4841.39393891,12.3636363624,4463.27272683,3861.57575719,42.0,42.0,?
2017-06-01 17:49:15.665181,4542.09090864,0.0,4275.24242381,8.2424242416,3918.24242385,8.2424242416,3894.54545416,201.939393919,4327.27272684,197.818181798,4513.24242379,3169.2121209,4241.75757533,3045.57575727,4371.06060562,1693.81818165,5019.63636313,2855.99999971,4172.21212079,3985.21212081,4427.21212077,12.3636363624,4210.84848443,0.0,4847.06060558,12.3636363624,4465.8484844,3861.57575719,42.0,42.0,?
2017-06-01 17:49:15.672857,4541.57575712,0.0,4272.66666624,8.2424242416,3918.24242385,8.2424242416,3896.0909087,201.939393919,4330.87878745,197.818181798,4517.36363591,3169.2121209,4243.81818139,3045.57575727,4371.06060562,1693.81818165,5020.66666616,2855.99999971,4180.45454504,3985.21212081,4420.51515107,12.3636363624,4209.30302988,0.0,4837.7878783,12.3636363624,4469.96969652,3861.57575719,42.0,42.0,?
2017-06-01 17:49:15.682467,4545.18181773,0.0,4273.69696927,8.2424242416,3917.72727234,8.2424242416,3898.15151476,201.939393919,4329.3333329,197.818181798,4516.33333288,3169.2121209,4240.7272723,3045.57575727,4374.15151471,1693.81818165,5017.57575707,2855.99999971,4179.93939352,3985.21212081,4431.84848441,12.3636363624,4209.30302988,0.0,4844.484848,12.3636363624,4470.48484804,3861.57575719,42.0,42.0,?
2017-06-01 17:49:15.688728,4542.09090864,0.0,4275.75757533,8.2424242416,3917.72727234,8.2424242416,3887.33333294,201.939393919,4322.12121169,197.818181798,4511.18181773,3169.2121209,4233.51515109,3045.57575727,4372.09090865,1693.81818165,5016.03030253,2855.99999971,4178.39393898,3985.21212081,4423.09090865,12.3636363624,4207.24242382,0.0,4841.39393891,12.3636363624,4464.81818137,3861.57575719,42.0,42.0,?
2017-06-01 17:49:15.696827,4539.51515106,0.0,4274.7272723,8.2424242416,3919.27272688,8.2424242416,3880.12121173,201.939393919,4320.06060563,197.818181798,4512.21212076,3169.2121209,4237.1212117,3045.57575727,4366.42424199,1693.81818165,5013.45454495,2855.99999971,4178.90909049,3985.21212081,4421.03030259,12.3636363624,4208.27272685,0.0,4839.33333285,12.3636363624,4462.75757531,3861.57575719,42.0,42.0,?
2017-06-01 17:49:15.706808,4545.18181773,0.0,4274.7272723,8.2424242416,3917.72727234,8.2424242416,3886.81818143,201.939393919,4319.0303026,197.818181798,4513.75757531,3169.2121209,4238.66666624,3045.57575727,4365.39393896,1693.81818165,5006.75757526,2855.99999971,4173.24242383,3985.21212081,4430.81818138,12.3636363624,4210.84848443,0.0,4846.54545406,12.3636363624,4463.78787834,3861.57575719,42.0,42.0,?
2017-06-01 17:49:15.713614,4541.57575712,0.0,4273.69696927,8.2424242416,3915.66666628,8.2424242416,3888.87878749,201.939393919,4315.42424199,197.818181798,4509.63636319,3169.2121209,4225.78787837,3045.57575727,4364.87878744,1693.81818165,5005.21212071,2855.99999971,4168.60606019,3985.21212081,4424.12121168,12.3636363624,4208.27272685,0.0,4836.24242376,12.3636363624,4462.75757531,3861.57575719,42.0,42.0,?
2017-06-01 17:49:15.720982,4539.51515106,0.0,4272.15151472,8.2424242416,3917.21212082,8.2424242416,3882.69696931,201.939393919,4316.45454502,197.818181798,4508.09090864,3169.2121209,4217.03030261,3045.57575727,4364.87878744,1693.81818165,5004.18181768,2855.99999971,4169.1212117,3985.21212081,4430.30302986,12.3636363624,4208.27272685,0.0,4840.36363588,12.3636363624,4463.78787834,3861.57575719,42.0,42.0,?
2017-06-01 17:49:15.729712,4543.12121167,0.0,4272.15151472,8.2424242416,3918.24242385,8.2424242416,3883.21212082,201.939393919,4320.57575714,197.818181798,4511.18181773,3169.2121209,4223.7272723,3045.57575727,4364.87878744,1693.81818165,4995.93939344,2855.99999971,4164.99999958,3985.21212081,4427.72727228,12.3636363624,4208.78787837,0.0,4839.33333285,12.3636363624,4462.75757531,3861.57575719,42.0,42.0,?
2017-06-01 17:49:15.737725,4541.57575712,0.0,4275.24242381,8.2424242416,3915.66666628,8.2424242416,3883.21212082,201.939393919,4317.48484805,197.818181798,4512.21212076,3169.2121209,4231.96969655,3045.57575727,4364.87878744,1693.81818165,4999.54545405,2855.99999971,4162.42424201,3985.21212081,4424.12121168,12.3636363624,4208.78787837,0.0,4835.72727224,12.3636363624,4462.2424238,3861.57575719,42.0,42.0,?
2017-06-01 17:49:15.749778,4542.09090864,0.0,4278.84848442,8.2424242416,3918.24242385,8.2424242416,3878.06060567,201.939393919,4312.3333329,197.818181798,4510.66666622,3169.2121209,4234.54545412,3045.57575727,4365.90909047,1693.81818165,5011.39393889,2855.99999971,4164.48484807,3985.21212081,4430.81818138,12.3636363624,4209.30302988,0.0,4842.93939346,12.3636363624,4461.21212077,3861.57575719,42.0,42.0,?
2017-06-01 17:49:15.755042,4540.54545409,0.0,4276.78787836,8.2424242416,3920.81818143,8.2424242416,3879.0909087,201.939393919,4312.84848442,197.818181798,4510.1515147,3169.2121209,4229.39393897,3045.57575727,4365.90909047,1693.81818165,5002.63636314,2855.99999971,4164.48484807,3985.21212081,4422.57575713,12.3636363624,4207.24242382,0.0,4834.69696921,12.3636363624,4453.99999955,3861.57575719,42.0,42.0,?
2017-06-01 17:49:15.759360,4542.60606015,0.0,4275.24242381,8.2424242416,3918.24242385,8.2424242416,3880.63636325,201.939393919,4313.87878745,197.818181798,4511.18181773,3169.2121209,4223.21212079,3045.57575727,4363.84848441,1693.81818165,4989.75757526,2855.99999971,4163.96969655,3985.21212081,4427.21212077,12.3636363624,4208.27272685,0.0,4842.93939346,12.3636363624,4448.33333289,3861.57575719,42.0,42.0,?
2017-06-01 17:49:15.768208,4543.12121167,0.0,4274.7272723,8.2424242416,3915.15151476,8.2424242416,3879.0909087,201.939393919,4313.87878745,197.818181798,4512.72727228,3169.2121209,4224.24242382,3045.57575727,4359.21212078,1693.81818165,4993.36363586,2855.99999971,4162.93939352,3985.21212081,4423.09090865,12.3636363624,4208.27272685,0.0,4845.51515103,12.3636363624,4447.81818137,3861.57575719,42.0,42.0,?
2017-06-01 17:49:15.774708,4537.454545,0.0,4272.66666624,8.2424242416,3914.12121173,8.2424242416,3878.57575719,201.939393919,4313.87878745,197.818181798,4510.66666622,3169.2121209,4224.24242382,3045.57575727,4355.60606017,1693.81818165,4995.93939344,2855.99999971,4160.36363595,3985.21212081,4419.99999956,12.3636363624,4207.24242382,0.0,4837.7878783,12.3636363624,4444.21212077,3861.57575719,42.0,42.0,?
2017-06-01 17:49:15.783214,4541.06060561,0.0,4272.66666624,8.2424242416,3914.12121173,8.2424242416,3878.06060567,201.939393919,4313.36363593,197.818181798,4510.1515147,3169.2121209,4223.7272723,3045.57575727,4357.15151472,1693.81818165,4994.39393889,2855.99999971,4162.42424201,3985.21212081,4431.33333289,12.3636363624,4209.30302988,0.0,4843.96969649,12.3636363624,4443.18181774,3861.57575719,42.0,42.0,?
2017-06-01 17:49:15.791809,4542.60606015,0.0,4273.18181775,8.2424242416,3912.57575718,8.2424242416,3879.60606022,201.939393919,4313.36363593,197.818181798,4512.72727228,3169.2121209,4229.90909049,3045.57575727,4360.24242381,1693.81818165,5000.57575708,2855.99999971,4169.1212117,3985.21212081,4423.09090865,12.3636363624,4206.72727231,0.0,4836.75757527,12.3636363624,4443.69696925,3861.57575719,42.0,42.0,?
2017-06-01 17:49:15.799086,4541.57575712,0.0,4274.7272723,8.2424242416,3913.60606021,8.2424242416,3880.12121173,201.939393919,4314.39393896,197.818181798,4510.66666622,3169.2121209,4235.57575715,3045.57575727,4361.27272684,1693.81818165,5005.72727223,2855.99999971,4168.60606019,3985.21212081,4428.2424238,12.3636363624,4207.75757534,0.0,4840.36363588,12.3636363624,4440.09090865,3861.57575719,42.0,42.0,?
2017-06-01 17:49:15.807199,4543.12121167,0.0,4274.7272723,8.2424242416,3919.7878784,8.2424242416,3878.06060567,201.939393919,4314.90909048,197.818181798,4508.09090864,3169.2121209,4232.99999958,3045.57575727,4363.84848441,1693.81818165,4997.9999995,2855.99999971,4164.99999958,3985.21212081,4429.78787834,12.3636363624,4208.27272685,0.0,4841.39393891,12.3636363624,4439.06060562,3861.57575719,42.0,42.0,?
2017-06-01 17:49:15.814633,4541.57575712,0.0,4273.69696927,8.2424242416,3921.33333294,8.2424242416,3877.54545416,201.939393919,4314.90909048,197.818181798,4508.60606016,3169.2121209,4225.78787837,3045.57575727,4365.39393896,1693.81818165,4991.81818132,2855.99999971,4170.66666625,3985.21212081,4423.09090865,12.3636363624,4205.18181776,0.0,4833.66666618,12.3636363624,4445.2424238,3861.57575719,42.0,42.0,?
2017-06-01 17:49:15.822993,4541.57575712,0.0,4275.24242381,8.2424242416,3917.72727234,8.2424242416,3880.63636325,201.939393919,4315.42424199,197.818181798,4511.69696925,3169.2121209,4218.06060564,3045.57575727,4360.24242381,1693.81818165,4999.54545405,2855.99999971,4174.27272686,3985.21212081,4432.36363592,12.3636363624,4209.30302988,0.0,4844.484848,12.3636363624,4450.90909046,3861.57575719,42.0,42.0,?
2017-06-01 17:49:15.830943,4540.03030258,0.0,4275.75757533,8.2424242416,3917.72727234,8.2424242416,3876.51515113,201.939393919,4312.3333329,197.818181798,4511.69696925,3169.2121209,4217.03030261,3045.57575727,4358.18181775,1693.81818165,5007.27272677,2855.99999971,4169.63636322,3985.21212081,4426.69696925,12.3636363624,4210.84848443,0.0,4839.84848436,12.3636363624,4447.30302986,3861.57575719,42.0,42.0,?
2017-06-01 17:49:15.837274,4543.12121167,0.0,4274.7272723,8.2424242416,3918.75757537,8.2424242416,3873.42424204,201.939393919,4308.7272723,197.818181798,4505.51515106,3169.2121209,4221.66666624,3045.57575727,4362.81818138,1693.81818165,4998.51515102,2855.99999971,4168.09090867,3985.21212081,4426.69696925,12.3636363624,4208.27272685,0.0,4839.33333285,12.3636363624,4445.2424238,3861.57575719,42.0,42.0,?
2017-06-01 17:49:15.845164,4545.69696924,12.3636363624,4273.69696927,8.2424242416,3918.75757537,8.2424242416,3876.51515113,201.939393919,4311.81818139,197.818181798,4503.96969652,3169.2121209,4222.69696927,3045.57575727,4365.39393896,1693.81818165,4993.87878738,2855.99999971,4170.15151473,3985.21212081,4425.66666622,12.3636363624,4206.72727231,0.0,4840.36363588,12.3636363624,4452.45454501,3861.57575719,42.0,42.0,?
2017-06-01 17:49:15.854535,4540.54545409,12.3636363624,4274.7272723,12.3636363624,3917.72727234,8.2424242416,3870.84848446,201.939393919,4309.24242381,197.818181798,4508.09090864,3169.2121209,4216.51515109,3045.57575727,4363.3333329,1693.81818165,5002.12121162,2855.99999971,4172.72727231,3985.21212081,4422.06060562,12.3636363624,4206.72727231,0.0,4835.21212073,12.3636363624,4453.99999955,3861.57575719,42.0,42.0,?
2017-06-01 17:49:15.861714,4542.09090864,12.3636363624,4276.27272685,12.3636363624,3918.75757537,8.2424242416,3868.27272689,201.939393919,4305.12121169,197.818181798,4509.12121167,3169.2121209,4213.424242,3045.57575727,4361.78787835,1693.81818165,5003.66666617,2855.99999971,4179.93939352,3985.21212081,4432.36363592,12.3636363624,4208.78787837,0.0,4846.03030255,12.3636363624,4448.33333289,3861.57575719,42.0,42.0,?
2017-06-01 17:49:15.869518,4541.57575712,12.3636363624,4273.18181775,12.3636363624,3917.21212082,8.2424242416,3875.99999961,201.939393919,4309.24242381,197.818181798,4507.57575713,3169.2121209,4215.99999958,3045.57575727,4358.69696926,1693.81818165,4997.48484799,2855.99999971,4178.39393898,3985.21212081,4421.5454541,12.3636363624,4207.24242382,0.0,4838.30302982,12.3636363624,4443.69696925,3861.57575719,42.0,42.0,?
2017-06-01 17:49:15.878139,4542.09090864,12.3636363624,4272.15151472,12.3636363624,3914.63636324,8.2424242416,3874.45454507,201.939393919,4308.7272723,197.818181798,4509.12121167,3169.2121209,4211.87878746,3045.57575727,4352.51515108,1693.81818165,4994.90909041,2855.99999971,4167.57575716,3985.21212081,4422.06060562,12.3636363624,4208.27272685,0.0,4836.24242376,12.3636363624,4441.63636319,3861.57575719,42.0,42.0,?
2017-06-01 17:49:15.884483,4544.1515147,12.3636363624,4275.75757533,12.3636363624,3917.72727234,8.2424242416,3863.63636325,201.939393919,4300.99999957,210.181818161,4508.09090864,3169.2121209,4200.54545413,3045.57575727,4347.87878744,1693.81818165,4991.3030298,2855.99999971,4167.06060564,3985.21212081,4429.78787834,12.3636363624,4208.78787837,0.0,4842.93939346,12.3636363624,4441.63636319,3861.57575719,42.0,42.0,?
2017-06-01 17:49:15.893627,4538.48484803,12.3636363624,4274.7272723,12.3636363624,3917.72727234,8.2424242416,3864.66666628,201.939393919,4300.48484805,210.181818161,4504.99999955,3136.24242393,4198.99999958,3045.57575727,4350.45454502,1693.81818165,4989.75757526,2855.99999971,4172.21212079,3985.21212081,4422.57575713,12.3636363624,4206.72727231,0.0,4834.69696921,12.3636363624,4441.12121168,3861.57575719,42.0,42.0,?
2017-06-01 17:49:15.900055,4541.57575712,12.3636363624,4272.66666624,12.3636363624,3916.69696931,8.2424242416,3869.81818143,201.939393919,4303.06060563,210.181818161,4509.63636319,3136.24242393,4207.75757534,3041.45454515,4355.60606017,1693.81818165,4998.51515102,2855.99999971,4172.72727231,3985.21212081,4429.78787834,12.3636363624,4209.30302988,0.0,4843.96969649,12.3636363624,4439.06060562,3861.57575719,42.0,42.0,?
2017-06-01 17:49:15.907694,4545.69696924,12.3636363624,4272.66666624,12.3636363624,3917.72727234,8.2424242416,3863.12121173,201.939393919,4298.93939351,210.181818161,4511.18181773,3136.24242393,4209.8181814,3041.45454515,4354.06060563,1685.57575741,4997.48484799,2855.99999971,4166.54545413,3985.21212081,4425.15151471,12.3636363624,4208.78787837,0.0,4842.42424194,12.3636363624,4433.39393895,3861.57575719,42.0,42.0,?
2017-06-01 17:49:15.918067,4538.99999955,12.3636363624,4273.18181775,12.3636363624,3917.21212082,8.2424242416,3863.12121173,201.939393919,4298.42424199,210.181818161,4505.51515106,3136.24242393,4205.18181776,3041.45454515,4351.99999956,1685.57575741,4987.6969692,2860.12121184,4164.48484807,3985.21212081,4424.12121168,12.3636363624,4208.27272685,0.0,4837.7878783,12.3636363624,4435.45454501,3861.57575719,42.0,42.0,?
2017-06-01 17:49:15.924570,4538.99999955,12.3636363624,4274.7272723,12.3636363624,3916.18181779,8.2424242416,3869.30302992,201.939393919,4301.51515109,210.181818161,4506.54545409,3136.24242393,4209.30302988,3041.45454515,4356.6363632,1685.57575741,4988.21212071,2860.12121184,4172.21212079,3972.84848445,4427.72727228,12.3636363624,4208.78787837,0.0,4842.93939346,12.3636363624,4443.69696925,3861.57575719,42.0,42.0,?
2017-06-01 17:49:15.931172,4544.66666621,12.3636363624,4274.21212078,12.3636363624,3916.18181779,8.2424242416,3868.27272689,201.939393919,4302.54545412,210.181818161,4510.66666622,3136.24242393,4214.45454503,3041.45454515,4358.18181775,1685.57575741,4994.90909041,2860.12121184,4179.42424201,3972.84848445,4419.48484804,0.0,4205.18181776,0.0,4835.72727224,12.3636363624,4442.66666622,3861.57575719,42.0,42.0,?
2017-06-01 17:49:15.941020,4545.69696924,12.3636363624,4272.66666624,12.3636363624,3918.24242385,8.2424242416,3869.81818143,201.939393919,4300.99999957,210.181818161,4507.06060561,3136.24242393,4211.87878746,3041.45454515,4351.99999956,1685.57575741,4994.90909041,2860.12121184,4175.8181814,3972.84848445,4426.69696925,0.0,4208.27272685,4.1212121208,4841.90909042,12.3636363624,4436.99999956,3861.57575719,42.0,42.0,?
2017-06-01 17:49:15.947193,4540.03030258,12.3636363624,4272.66666624,12.3636363624,3916.69696931,8.2424242416,3874.96969658,201.939393919,4299.45454502,210.181818161,4506.03030258,3136.24242393,4205.18181776,3041.45454515,4347.87878744,1685.57575741,4990.78787829,2860.12121184,4167.57575716,3972.84848445,4421.5454541,0.0,4210.84848443,4.1212121208,4840.36363588,12.3636363624,4439.57575713,3861.57575719,42.0,42.0,?
2017-06-01 17:49:15.954924,4539.51515106,12.3636363624,4273.69696927,12.3636363624,3916.18181779,8.2424242416,3871.87878749,201.939393919,4302.0303026,210.181818161,4509.12121167,3136.24242393,4206.21212079,3041.45454515,4350.45454502,1685.57575741,4987.6969692,2860.12121184,4170.66666625,3976.96969657,4421.5454541,0.0,4208.78787837,4.1212121208,4839.33333285,12.3636363624,4441.63636319,3861.57575719,42.0,42.0,?
2017-06-01 17:49:15.963326,4544.66666621,12.3636363624,4276.78787836,12.3636363624,3915.15151476,8.2424242416,3865.1818178,201.939393919,4300.99999957,210.181818161,4509.12121167,3136.24242393,4209.30302988,3041.45454515,4347.87878744,1685.57575741,4983.06060556,2860.12121184,4173.75757534,3976.96969657,4432.36363592,4.1212121208,4208.27272685,4.1212121208,4846.03030255,12.3636363624,4433.39393895,3861.57575719,42.0,42.0,?
2017-06-01 17:49:15.971115,4538.99999955,12.3636363624,4276.78787836,12.3636363624,3911.54545415,8.2424242416,3867.24242386,201.939393919,4297.90909048,210.181818161,4508.60606016,3136.24242393,4208.27272685,3041.45454515,4343.24242381,1685.57575741,4980.9999995,2860.12121184,4170.15151473,3976.96969657,4423.09090865,4.1212121208,4207.75757534,0.0,4834.69696921,12.3636363624,4426.69696925,3861.57575719,42.0,42.0,?
2017-06-01 17:49:15.978701,4538.48484803,12.3636363624,4274.21212078,12.3636363624,3912.57575718,8.2424242416,3869.30302992,201.939393919,4298.42424199,210.181818161,4507.06060561,3136.24242393,4207.24242382,3041.45454515,4346.84848441,1685.57575741,4983.06060556,2860.12121184,4164.99999958,3976.96969657,4427.21212077,4.1212121208,4208.27272685,0.0,4840.87878739,12.3636363624,4429.78787834,3861.57575719,42.0,42.0,?
2017-06-01 17:49:15.985698,4544.66666621,12.3636363624,4273.69696927,12.3636363624,3917.21212082,8.2424242416,3865.69696931,201.939393919,4299.96969654,210.181818161,4504.99999955,3136.24242393,4204.66666625,3041.45454515,4350.45454502,1685.57575741,4988.21212071,2860.12121184,4166.03030261,3976.96969657,4427.72727228,4.1212121208,4206.72727231,0.0,4842.42424194,12.3636363624,4430.81818138,3861.57575719,42.0,42.0,?
2017-06-01 17:49:15.994252,4541.57575712,12.3636363624,4274.21212078,12.3636363624,3916.18181779,8.2424242416,3865.69696931,201.939393919,4298.93939351,210.181818161,4507.06060561,3136.24242393,4204.66666625,3041.45454515,4350.45454502,1685.57575741,4994.39393889,2860.12121184,4175.30302989,3976.96969657,4426.18181774,4.1212121208,4206.72727231,0.0,4835.21212073,12.3636363624,4428.75757531,3861.57575719,42.0,42.0,?
2017-06-01 17:49:16.002529,4540.54545409,12.3636363624,4274.7272723,12.3636363624,3914.12121173,8.2424242416,3866.21212083,201.939393919,4298.42424199,210.181818161,4509.12121167,3136.24242393,4208.78787837,3041.45454515,4350.96969653,1685.57575741,4992.33333283,2860.12121184,4180.96969655,3976.96969657,4431.84848441,4.1212121208,4210.33333291,0.0,4843.45454497,12.3636363624,4432.87878744,3861.57575719,42.0,42.0,?
2017-06-01 17:49:16.008791,4540.03030258,12.3636363624,4273.18181775,12.3636363624,3915.15151476,8.2424242416,3866.21212083,201.939393919,4298.42424199,210.181818161,4509.12121167,3136.24242393,4205.18181776,3041.45454515,4351.99999956,1685.57575741,4987.6969692,2860.12121184,4178.90909049,3976.96969657,4423.60606016,4.1212121208,4207.75757534,0.0,4838.30302982,12.3636363624,4433.90909047,3861.57575719,42.0,42.0,?
2017-06-01 17:49:16.016900,4543.63636318,12.3636363624,4274.21212078,12.3636363624,3917.21212082,8.2424242416,3866.21212083,201.939393919,4295.3333329,210.181818161,4504.99999955,3136.24242393,4196.424242,3041.45454515,4347.87878744,1685.57575741,4989.24242374,2860.12121184,4176.84848443,3976.96969657,4430.81818138,4.1212121208,4205.69696928,0.0,4844.484848,12.3636363624,4428.2424238,3861.57575719,42.0,42.0,?
2017-06-01 17:49:16.026806,4545.69696924,12.3636363624,4275.24242381,12.3636363624,3919.27272688,8.2424242416,3865.69696931,201.939393919,4294.30302987,210.181818161,4500.87878743,3136.24242393,4195.90909049,3041.45454515,4342.21212078,1685.57575741,4983.06060556,2860.12121184,4174.78787837,3976.96969657,4427.21212077,4.1212121208,4207.75757534,0.0,4843.45454497,12.3636363624,4424.63636319,3861.57575719,42.0,42.0,?
2017-06-01 17:49:16.032687,4543.63636318,12.3636363624,4274.21212078,12.3636363624,3917.21212082,8.2424242416,3865.69696931,201.939393919,4296.87878745,210.181818161,4504.48484803,3136.24242393,4202.60606019,3041.45454515,4344.27272684,1685.57575741,4977.90909041,2860.12121184,4177.36363595,3976.96969657,4418.45454501,4.1212121208,4210.84848443,0.0,4832.12121164,12.3636363624,4424.63636319,3861.57575719,42.0,42.0,?
2017-06-01 17:49:16.040636,4544.66666621,12.3636363624,4274.7272723,12.3636363624,3915.15151476,8.2424242416,3867.24242386,201.939393919,4297.90909048,210.181818161,4513.24242379,3136.24242393,4210.84848443,3041.45454515,4355.60606017,1685.57575741,4992.84848435,2860.12121184,4187.66666625,3976.96969657,4429.78787834,4.1212121208,4212.90909049,0.0,4841.90909042,12.3636363624,4427.21212077,3861.57575719,42.0,42.0,?
2017-06-01 17:49:16.048740,4542.60606015,12.3636363624,4275.24242381,12.3636363624,3915.66666628,8.2424242416,3869.30302992,201.939393919,4299.96969654,210.181818161,4513.75757531,3136.24242393,4219.09090867,3041.45454515,4359.21212078,1685.57575741,5003.15151465,2860.12121184,4186.1212117,3976.96969657,4423.60606016,4.1212121208,4208.27272685,0.0,4837.7878783,12.3636363624,4432.36363592,3861.57575719,42.0,42.0,?
2017-06-01 17:49:16.058852,4542.09090864,12.3636363624,4275.75757533,12.3636363624,3915.15151476,8.2424242416,3868.27272689,201.939393919,4302.0303026,210.181818161,4510.1515147,3136.24242393,4213.424242,3041.45454515,4350.45454502,1685.57575741,4990.78787829,2860.12121184,4178.39393898,3976.96969657,4425.15151471,4.1212121208,4209.30302988,0.0,4839.84848436,12.3636363624,4433.39393895,3861.57575719,42.0,42.0,?
2017-06-01 17:49:16.063951,4543.63636318,12.3636363624,4274.21212078,12.3636363624,3916.69696931,8.2424242416,3866.21212083,201.939393919,4298.93939351,210.181818161,4511.18181773,3136.24242393,4200.03030261,3041.45454515,4345.30302987,1685.57575741,4980.48484799,2860.12121184,4179.93939352,3976.96969657,4427.21212077,4.1212121208,4211.36363594,0.0,4843.96969649,12.3636363624,4427.72727228,3861.57575719,42.0,42.0,?
2017-06-01 17:49:16.077831,4541.57575712,12.3636363624,4272.66666624,12.3636363624,3918.24242385,8.2424242416,3866.72727234,201.939393919,4292.75757533,210.181818161,4508.60606016,3136.24242393,4200.03030261,3041.45454515,4347.36363593,1685.57575741,4984.60606011,2860.12121184,4180.45454504,3976.96969657,4423.09090865,4.1212121208,4206.72727231,0.0,4835.21212073,12.3636363624,4423.09090865,3861.57575719,42.0,42.0,?
2017-06-01 17:49:16.083613,4543.63636318,12.3636363624,4275.24242381,12.3636363624,3916.69696931,8.2424242416,3867.24242386,201.939393919,4293.27272684,210.181818161,4507.06060561,3136.24242393,4204.15151473,3041.45454515,4349.42424199,1685.57575741,4988.72727223,2860.12121184,4177.87878746,3976.96969657,4430.81818138,4.1212121208,4207.75757534,0.0,4842.42424194,12.3636363624,4427.21212077,3861.57575719,42.0,42.0,?
2017-06-01 17:49:16.088560,4542.09090864,12.3636363624,4274.7272723,12.3636363624,3916.69696931,8.2424242416,3864.66666628,201.939393919,4295.3333329,210.181818161,4510.1515147,3136.24242393,4201.06060564,3041.45454515,4350.45454502,1685.57575741,4992.33333283,2860.12121184,4180.45454504,3976.96969657,4421.03030259,4.1212121208,4209.8181814,0.0,4839.84848436,12.3636363624,4435.45454501,3861.57575719,42.0,42.0,?
2017-06-01 17:49:16.095276,4539.51515106,12.3636363624,4273.69696927,12.3636363624,3917.72727234,8.2424242416,3865.1818178,201.939393919,4295.3333329,210.181818161,4510.1515147,3136.24242393,4205.18181776,3041.45454515,4349.42424199,1685.57575741,4993.87878738,2860.12121184,4190.24242382,3976.96969657,4422.06060562,4.1212121208,4208.78787837,0.0,4842.42424194,12.3636363624,4437.51515107,3861.57575719,42.0,42.0,?
2017-06-01 17:49:16.105369,4543.12121167,12.3636363624,4274.7272723,12.3636363624,3916.69696931,8.2424242416,3867.24242386,201.939393919,4294.81818139,210.181818161,4508.60606016,3136.24242393,4209.30302988,3041.45454515,4349.42424199,1685.57575741,4990.78787829,2860.12121184,4188.18181776,3976.96969657,4429.27272683,4.1212121208,4207.24242382,0.0,4846.03030255,12.3636363624,4431.33333289,3861.57575719,42.0,42.0,?
2017-06-01 17:49:16.111313,4542.09090864,12.3636363624,4273.18181775,12.3636363624,3916.69696931,8.2424242416,3866.21212083,201.939393919,4294.30302987,210.181818161,4509.63636319,3136.24242393,4206.21212079,3041.45454515,4351.48484805,1685.57575741,4989.75757526,2860.12121184,4174.27272686,3976.96969657,4422.06060562,4.1212121208,4206.72727231,0.0,4835.21212073,12.3636363624,4424.12121168,3861.57575719,42.0,42.0,?
2017-06-01 17:49:16.124273,4542.60606015,12.3636363624,4273.18181775,12.3636363624,3918.24242385,8.2424242416,3864.15151477,201.939393919,4295.3333329,210.181818161,4506.54545409,3136.24242393,4206.72727231,3041.45454515,4350.96969653,1685.57575741,4991.3030298,2860.12121184,4173.24242383,3976.96969657,4429.78787834,4.1212121208,4209.8181814,0.0,4843.45454497,12.3636363624,4425.15151471,3861.57575719,42.0,42.0,?
2017-06-01 17:49:16.129473,4542.09090864,12.3636363624,4274.21212078,12.3636363624,3915.15151476,8.2424242416,3864.66666628,201.939393919,4296.36363593,210.181818161,4504.48484803,3136.24242393,4203.1212117,3041.45454515,4348.39393896,1685.57575741,4993.87878738,2860.12121184,4183.54545413,3976.96969657,4424.63636319,4.1212121208,4208.78787837,0.0,4841.39393891,12.3636363624,4427.21212077,3861.57575719,42.0,42.0,?
2017-06-01 17:49:16.134661,4540.03030258,12.3636363624,4273.18181775,12.3636363624,3912.57575718,8.2424242416,3865.69696931,201.939393919,4296.36363593,210.181818161,4504.99999955,3136.24242393,4192.30302988,3041.45454515,4345.30302987,1685.57575741,4987.6969692,2860.12121184,4177.87878746,3976.96969657,4421.5454541,4.1212121208,4206.21212079,0.0,4838.30302982,12.3636363624,4418.45454501,3861.57575719,42.0,42.0,?
2017-06-01 17:49:16.142447,4543.12121167,12.3636363624,4273.18181775,12.3636363624,3916.69696931,8.2424242416,3864.15151477,201.939393919,4296.87878745,210.181818161,4504.48484803,3136.24242393,4192.30302988,3041.45454515,4341.69696926,1685.57575741,4975.84848435,2860.12121184,4166.03030261,3976.96969657,4428.2424238,4.1212121208,4207.75757534,0.0,4844.99999952,12.3636363624,4410.72727229,3861.57575719,42.0,42.0,?
2017-06-01 17:49:16.150035,4543.63636318,12.3636363624,4273.69696927,12.3636363624,3918.24242385,8.2424242416,3863.63636325,201.939393919,4297.39393896,210.181818161,4505.51515106,3136.24242393,4196.424242,3041.45454515,4341.69696926,1685.57575741,4976.36363587,2860.12121184,4173.24242383,3976.96969657,4423.09090865,4.1212121208,4207.75757534,0.0,4836.24242376,12.3636363624,4415.36363592,3861.57575719,42.0,42.0,?
2017-06-01 17:49:16.158860,4544.1515147,12.3636363624,4273.69696927,12.3636363624,3917.21212082,8.2424242416,3862.60606022,201.939393919,4293.78787836,210.181818161,4506.54545409,3136.24242393,4191.78787837,3041.45454515,4343.75757532,1685.57575741,4981.51515102,2860.12121184,4176.84848443,3976.96969657,4428.75757531,4.1212121208,4209.30302988,0.0,4842.42424194,12.3636363624,4421.03030259,3861.57575719,42.0,42.0,?
2017-06-01 17:49:16.166304,4542.09090864,12.3636363624,4273.18181775,12.3636363624,3918.24242385,8.2424242416,3860.54545416,201.939393919,4293.27272684,210.181818161,4506.03030258,3136.24242393,4190.24242382,3041.45454515,4341.69696926,1685.57575741,4983.06060556,2860.12121184,4171.18181776,3976.96969657,4425.66666622,4.1212121208,4207.24242382,0.0,4842.93939346,12.3636363624,4413.81818138,3861.57575719,42.0,42.0,?
2017-06-01 17:49:16.174569,4540.03030258,12.3636363624,4273.69696927,12.3636363624,3917.21212082,8.2424242416,3861.57575719,201.939393919,4298.93939351,210.181818161,4508.60606016,3136.24242393,4201.06060564,3041.45454515,4344.78787835,1685.57575741,4990.78787829,2860.12121184,4177.36363595,3976.96969657,4426.69696925,4.1212121208,4205.69696928,0.0,4838.30302982,12.3636363624,4412.78787835,3861.57575719,42.0,42.0,?
2017-06-01 17:49:16.181774,4542.09090864,12.3636363624,4274.21212078,12.3636363624,3915.66666628,8.2424242416,3865.69696931,201.939393919,4299.96969654,210.181818161,4511.69696925,3136.24242393,4209.30302988,3041.45454515,4351.99999956,1685.57575741,4998.51515102,2860.12121184,4184.57575716,3976.96969657,4431.84848441,4.1212121208,4208.78787837,0.0,4842.93939346,12.3636363624,4426.69696925,3861.57575719,42.0,42.0,?
2017-06-01 17:49:16.189600,4540.03030258,12.3636363624,4274.7272723,12.3636363624,3915.15151476,8.2424242416,3866.21212083,201.939393919,4297.39393896,210.181818161,4510.1515147,3136.24242393,4206.72727231,3041.45454515,4352.51515108,1685.57575741,4994.90909041,2860.12121184,4187.15151473,3976.96969657,4418.96969653,4.1212121208,4207.75757534,0.0,4836.75757527,12.3636363624,4429.78787834,3861.57575719,42.0,42.0,?
2017-06-01 17:49:16.211784,4541.57575712,12.3636363624,4274.7272723,12.3636363624,3915.66666628,8.2424242416,3864.15151477,201.939393919,4298.93939351,210.181818161,4509.12121167,3136.24242393,4204.66666625,3041.45454515,4349.9393935,1685.57575741,4992.33333283,2860.12121184,4190.24242382,3976.96969657,4426.69696925,4.1212121208,4208.78787837,0.0,4844.99999952,12.3636363624,4423.09090865,3861.57575719,42.0,42.0,?
2017-06-01 17:49:16.213181,4544.66666621,12.3636363624,4274.7272723,12.3636363624,3916.18181779,8.2424242416,3864.15151477,201.939393919,4300.48484805,210.181818161,4511.18181773,3136.24242393,4204.15151473,3041.45454515,4346.3333329,1685.57575741,4992.33333283,2860.12121184,4186.63636322,3976.96969657,4426.69696925,4.1212121208,4209.30302988,0.0,4842.42424194,12.3636363624,4424.12121168,3861.57575719,42.0,42.0,?
2017-06-01 17:49:16.218619,4541.06060561,12.3636363624,4273.69696927,12.3636363624,3915.66666628,8.2424242416,3864.66666628,201.939393919,4299.45454502,210.181818161,4509.12121167,3136.24242393,4203.1212117,3041.45454515,4347.36363593,1685.57575741,4993.36363586,2860.12121184,4186.63636322,3976.96969657,4421.03030259,4.1212121208,4206.72727231,0.0,4833.15151467,12.3636363624,4426.69696925,3861.57575719,42.0,42.0,?
2017-06-01 17:49:16.223809,4541.06060561,12.3636363624,4274.21212078,12.3636363624,3916.69696931,8.2424242416,3864.15151477,201.939393919,4299.45454502,210.181818161,4508.60606016,3136.24242393,4204.15151473,3041.45454515,4352.51515108,1685.57575741,4995.42424192,2860.12121184,4191.27272685,3976.96969657,4429.78787834,4.1212121208,4205.18181776,0.0,4843.45454497,12.3636363624,4422.06060562,3861.57575719,42.0,42.0,?
2017-06-01 17:49:16.228350,4539.51515106,12.3636363624,4274.21212078,12.3636363624,3918.24242385,8.2424242416,3863.12121173,201.939393919,4295.84848442,210.181818161,4509.63636319,3136.24242393,4205.18181776,3041.45454515,4350.45454502,1685.57575741,4988.72727223,2860.12121184,4187.66666625,3976.96969657,4423.60606016,4.1212121208,4203.63636322,0.0,4837.7878783,12.3636363624,4415.36363592,3861.57575719,42.0,42.0,?
2017-06-01 17:49:16.257442,4541.57575712,12.3636363624,4273.18181775,12.3636363624,3918.75757537,8.2424242416,3864.15151477,201.939393919,4295.84848442,210.181818161,4508.60606016,3136.24242393,4205.69696928,3041.45454515,4345.81818138,1685.57575741,4980.48484799,2860.12121184,4183.54545413,3976.96969657,4428.2424238,4.1212121208,4209.30302988,0.0,4840.36363588,12.3636363624,4415.36363592,3861.57575719,42.0,42.0,?
2017-06-01 17:49:16.263763,4542.60606015,12.3636363624,4275.24242381,12.3636363624,3917.72727234,8.2424242416,3862.60606022,201.939393919,4296.87878745,210.181818161,4507.57575713,3136.24242393,4202.60606019,3041.45454515,4348.39393896,1685.57575741,4986.66666617,2860.12121184,4186.63636322,3976.96969657,4427.21212077,4.1212121208,4209.8181814,0.0,4843.45454497,12.3636363624,4417.9393935,3861.57575719,42.0,42.0,?
2017-06-01 17:49:16.266718,4540.03030258,12.3636363624,4277.30302988,12.3636363624,3917.21212082,8.2424242416,3857.96969658,201.939393919,4292.75757533,210.181818161,4508.60606016,3136.24242393,4200.03030261,3041.45454515,4347.36363593,1685.57575741,4992.84848435,2860.12121184,4185.60606019,3976.96969657,4422.57575713,4.1212121208,4204.66666625,0.0,4835.72727224,12.3636363624,4417.42424198,3861.57575719,42.0,42.0,?
2017-06-01 17:49:16.269867,4542.09090864,12.3636363624,4276.78787836,12.3636363624,3919.7878784,8.2424242416,3855.90909052,201.939393919,4293.27272684,210.181818161,4510.1515147,3136.24242393,4206.21212079,3041.45454515,4342.21212078,1685.57575741,4981.51515102,2860.12121184,4180.45454504,3976.96969657,4430.81818138,4.1212121208,4206.72727231,0.0,4842.93939346,12.3636363624,4415.87878744,3861.57575719,42.0,42.0,?
2017-06-01 17:49:16.273780,4540.03030258,12.3636363624,4273.18181775,12.3636363624,3918.24242385,8.2424242416,3851.7878784,201.939393919,4299.96969654,210.181818161,4511.18181773,3136.24242393,4213.424242,3041.45454515,4346.84848441,1685.57575741,4970.18181768,2860.12121184,4179.42424201,3976.96969657,4421.03030259,4.1212121208,4208.27272685,0.0,4838.81818133,12.3636363624,4410.72727229,3861.57575719,42.0,42.0,?
2017-06-01 17:49:16.276797,4542.09090864,12.3636363624,4272.66666624,12.3636363624,3914.63636324,8.2424242416,3852.81818143,201.939393919,4302.0303026,210.181818161,4512.72727228,3136.24242393,4208.27272685,3041.45454515,4351.48484805,1685.57575741,4976.87878738,2860.12121184,4180.45454504,3976.96969657,4426.18181774,4.1212121208,4207.24242382,0.0,4841.39393891,12.3636363624,4407.6363632,3861.57575719,42.0,42.0,?
2017-06-01 17:49:16.283342,4545.18181773,12.3636363624,4275.24242381,12.3636363624,3915.15151476,8.2424242416,3860.54545416,201.939393919,4298.93939351,210.181818161,4510.66666622,3136.24242393,4201.06060564,3041.45454515,4345.81818138,1685.57575741,4983.06060556,2860.12121184,4183.54545413,3976.96969657,4431.33333289,4.1212121208,4208.78787837,0.0,4843.96969649,12.3636363624,4415.87878744,3861.57575719,42.0,42.0,?
2017-06-01 17:49:16.291907,4542.09090864,12.3636363624,4275.24242381,12.3636363624,3917.21212082,8.2424242416,3862.0909087,201.939393919,4297.90909048,210.181818161,4508.60606016,3136.24242393,4205.18181776,3041.45454515,4344.27272684,1685.57575741,4981.51515102,2860.12121184,4188.18181776,3976.96969657,4420.51515107,4.1212121208,4209.30302988,0.0,4832.63636315,12.3636363624,4424.12121168,3861.57575719,42.0,42.0,?
2017-06-01 17:49:16.299494,4546.72727227,12.3636363624,4275.24242381,12.3636363624,3919.7878784,8.2424242416,3856.42424204,201.939393919,4295.3333329,210.181818161,4510.1515147,3136.24242393,4207.75757534,3041.45454515,4349.9393935,1685.57575741,4987.6969692,2860.12121184,4193.33333291,3976.96969657,4427.21212077,4.1212121208,4209.30302988,0.0,4840.36363588,12.3636363624,4418.96969653,3861.57575719,42.0,42.0,?
2017-06-01 17:49:16.307105,4546.72727227,12.3636363624,4273.18181775,12.3636363624,3918.24242385,8.2424242416,3850.75757537,201.939393919,4288.12121169,210.181818161,4509.63636319,3136.24242393,4199.5151511,3041.45454515,4344.27272684,1685.57575741,4983.06060556,2860.12121184,4184.57575716,3976.96969657,4424.63636319,4.1212121208,4206.72727231,0.0,4838.81818133,12.3636363624,4411.2424238,3861.57575719,42.0,42.0,?
2017-06-01 17:49:16.314612,4541.06060561,12.3636363624,4272.66666624,12.3636363624,3914.63636324,8.2424242416,3850.24242386,201.939393919,4284.51515109,210.181818161,4506.03030258,3136.24242393,4194.36363594,3041.45454515,4331.39393896,1685.57575741,4961.93939344,2860.12121184,4168.60606019,3976.96969657,4425.66666622,4.1212121208,4208.27272685,0.0,4837.7878783,12.3636363624,4412.27272683,3861.57575719,42.0,42.0,?
2017-06-01 17:49:16.324978,4542.09090864,12.3636363624,4273.69696927,12.3636363624,3916.69696931,8.2424242416,3854.36363598,201.939393919,4289.66666624,210.181818161,4508.60606016,3136.24242393,4196.93939352,3041.45454515,4334.99999957,1685.57575741,4956.27272678,2860.12121184,4171.69696928,3976.96969657,4428.2424238,4.1212121208,4209.8181814,0.0,4842.93939346,12.3636363624,4411.75757532,3861.57575719,42.0,42.0,?
2017-06-01 17:49:16.329726,4541.57575712,12.3636363624,4272.66666624,12.3636363624,3920.30302991,8.2424242416,3854.87878749,201.939393919,4299.45454502,210.181818161,4512.72727228,3136.24242393,4202.09090867,3041.45454515,4344.78787835,1685.57575741,4970.6969692,2860.12121184,4183.54545413,3976.96969657,4421.5454541,4.1212121208,4205.18181776,0.0,4835.72727224,12.3636363624,4409.69696926,3861.57575719,42.0,42.0,?
2017-06-01 17:49:16.337862,4541.57575712,12.3636363624,4273.69696927,12.3636363624,3917.21212082,8.2424242416,3855.90909052,201.939393919,4299.45454502,210.181818161,4510.1515147,3136.24242393,4209.8181814,3041.45454515,4345.81818138,1685.57575741,4983.06060556,2860.12121184,4183.03030261,3976.96969657,4430.81818138,4.1212121208,4206.72727231,0.0,4843.96969649,12.3636363624,4414.33333289,3861.57575719,42.0,42.0,?
2017-06-01 17:49:16.346722,4541.57575712,12.3636363624,4276.27272685,12.3636363624,3914.63636324,8.2424242416,3859.51515113,201.939393919,4296.36363593,210.181818161,4509.12121167,3136.24242393,4209.8181814,3041.45454515,4344.78787835,1685.57575741,4986.15151465,2860.12121184,4179.93939352,3976.96969657,4425.66666622,4.1212121208,4207.75757534,0.0,4841.39393891,12.3636363624,4414.84848441,3861.57575719,42.0,42.0,?
2017-06-01 17:49:16.354046,4540.54545409,12.3636363624,4276.78787836,12.3636363624,3916.18181779,8.2424242416,3858.99999961,201.939393919,4299.96969654,210.181818161,4512.21212076,3136.24242393,4206.72727231,3041.45454515,4347.36363593,1685.57575741,4987.18181768,2860.12121184,4188.69696928,3976.96969657,4424.12121168,4.1212121208,4208.27272685,0.0,4839.33333285,12.3636363624,4409.69696926,3861.57575719,42.0,42.0,?
2017-06-01 17:49:16.362020,4543.63636318,12.3636363624,4276.27272685,12.3636363624,3918.24242385,8.2424242416,3854.36363598,201.939393919,4299.96969654,210.181818161,4510.1515147,3136.24242393,4212.39393897,3041.45454515,4346.84848441,1685.57575741,4988.72727223,2860.12121184,4189.21212079,3976.96969657,4430.30302986,4.1212121208,4209.30302988,0.0,4844.484848,12.3636363624,4408.66666623,3861.57575719,42.0,42.0,?
2017-06-01 17:49:16.370673,4543.12121167,12.3636363624,4274.21212078,12.3636363624,3917.21212082,8.2424242416,3852.30302992,201.939393919,4291.21212078,210.181818161,4509.12121167,3136.24242393,4213.93939352,3041.45454515,4341.69696926,1685.57575741,4979.96969647,2860.12121184,4171.18181776,3976.96969657,4421.5454541,4.1212121208,4206.21212079,0.0,4833.15151467,12.3636363624,4403.51515107,3861.57575719,42.0,42.0,?
2017-06-01 17:49:16.376682,4543.12121167,12.3636363624,4274.21212078,12.3636363624,3917.72727234,0.0,3849.72727234,201.939393919,4285.54545412,210.181818161,4508.60606016,3136.24242393,4206.72727231,3041.45454515,4337.06060563,1685.57575741,4962.96969647,2860.12121184,4160.87878746,3976.96969657,4428.75757531,4.1212121208,4207.24242382,0.0,4839.84848436,12.3636363624,4397.33333289,3861.57575719,42.0,42.0,?
2017-06-01 17:49:16.384636,4543.63636318,12.3636363624,4275.24242381,12.3636363624,3916.69696931,0.0,3845.60606022,210.181818161,4285.0303026,210.181818161,4508.09090864,3136.24242393,4199.5151511,3041.45454515,4332.93939351,1685.57575741,4958.33333284,2860.12121184,4170.15151473,3976.96969657,4426.18181774,4.1212121208,4207.75757534,0.0,4843.45454497,12.3636363624,4400.9393935,3861.57575719,42.0,42.0,?
2017-06-01 17:49:16.393469,4543.12121167,12.3636363624,4274.21212078,12.3636363624,3913.60606021,0.0,3847.66666628,210.181818161,4284.51515109,197.818181798,4508.60606016,3136.24242393,4193.33333291,3041.45454515,4333.45454502,1685.57575741,4968.63636314,2860.12121184,4178.90909049,3976.96969657,4422.57575713,4.1212121208,4206.72727231,0.0,4839.84848436,12.3636363624,4409.69696926,3861.57575719,42.0,42.0,?
2017-06-01 17:49:16.400080,4544.1515147,12.3636363624,4274.21212078,12.3636363624,3915.15151476,0.0,3848.69696931,210.181818161,4288.63636321,197.818181798,4510.66666622,3099.15151484,4192.30302988,3041.45454515,4337.57575714,1685.57575741,4979.96969647,2860.12121184,4178.39393898,3976.96969657,4431.84848441,4.1212121208,4207.75757534,0.0,4843.96969649,12.3636363624,4417.42424198,3861.57575719,42.0,42.0,?
2017-06-01 17:49:16.408491,4539.51515106,12.3636363624,4273.69696927,12.3636363624,3919.27272688,0.0,3849.72727234,210.181818161,4291.21212078,197.818181798,4511.69696925,3099.15151484,4197.96969655,3041.45454515,4340.15151472,1685.57575741,4983.57575708,2860.12121184,4174.78787837,3976.96969657,4425.15151471,4.1212121208,4207.24242382,0.0,4834.69696921,12.3636363624,4422.06060562,3861.57575719,42.0,42.0,?
2017-06-01 17:49:16.418565,4540.54545409,12.3636363624,4275.24242381,12.3636363624,3918.24242385,0.0,3852.30302992,210.181818161,4290.18181775,197.818181798,4507.06060561,3099.15151484,4194.36363594,3041.45454515,4338.60606017,1685.57575741,4981.51515102,2860.12121184,4171.18181776,3976.96969657,4427.72727228,4.1212121208,4208.78787837,0.0,4842.42424194,12.3636363624,4421.5454541,3861.57575719,42.0,42.0,?
2017-06-01 17:49:16.424174,4546.21212076,12.3636363624,4275.24242381,12.3636363624,3914.63636324,0.0,3852.81818143,210.181818161,4286.57575715,197.818181798,4503.96969652,3099.15151484,4184.06060564,3041.45454515,4336.0303026,1685.57575741,4980.48484799,2864.24242396,4165.5151511,3976.96969657,4425.66666622,4.1212121208,4207.75757534,0.0,4843.96969649,12.3636363624,4423.09090865,3861.57575719,42.0,42.0,?
2017-06-01 17:49:16.431774,4543.12121167,12.3636363624,4273.18181775,12.3636363624,3915.66666628,0.0,3851.27272689,210.181818161,4286.57575715,197.818181798,4507.06060561,3099.15151484,4187.15151473,3041.45454515,4337.06060563,1685.57575741,4982.03030253,2864.24242396,4161.90909049,3976.96969657,4423.09090865,4.1212121208,4206.21212079,0.0,4836.24242376,12.3636363624,4430.30302986,3861.57575719,42.0,42.0,?
2017-06-01 17:49:16.441561,4541.06060561,12.3636363624,4274.21212078,12.3636363624,3919.27272688,0.0,3854.36363598,210.181818161,4292.24242381,197.818181798,4508.60606016,3099.15151484,4192.30302988,3041.45454515,4336.54545411,1685.57575741,4974.81818132,2864.24242396,4162.42424201,3976.96969657,4430.30302986,0.0,4208.78787837,0.0,4845.51515103,12.3636363624,4433.39393895,3861.57575719,42.0,42.0,?
2017-06-01 17:49:16.446767,4540.54545409,12.3636363624,4274.7272723,12.3636363624,3917.21212082,0.0,3860.54545416,210.181818161,4295.3333329,197.818181798,4506.54545409,3099.15151484,4188.69696928,3041.45454515,4334.99999957,1685.57575741,4975.84848435,2864.24242396,4163.45454504,3976.96969657,4420.51515107,0.0,4209.30302988,0.0,4839.33333285,12.3636363624,4437.51515107,3861.57575719,42.0,42.0,?
2017-06-01 17:49:16.454774,4543.12121167,12.3636363624,4272.15151472,12.3636363624,3915.15151476,0.0,3862.60606022,210.181818161,4293.27272684,197.818181798,4504.99999955,3099.15151484,4185.60606019,3041.45454515,4338.09090866,1685.57575741,4992.33333283,2864.24242396,4169.63636322,3976.96969657,4426.18181774,0.0,4209.8181814,0.0,4839.84848436,4.1212121208,4448.33333289,3861.57575719,42.0,42.0,?
2017-06-01 17:49:16.463608,4544.66666621,12.3636363624,4271.63636321,12.3636363624,3917.21212082,0.0,3859.51515113,210.181818161,4289.15151472,197.818181798,4505.51515106,3099.15151484,4187.66666625,3041.45454515,4338.60606017,1685.57575741,4992.33333283,2864.24242396,4173.75757534,3981.09090869,4427.72727228,0.0,4208.78787837,0.0,4842.42424194,4.1212121208,4451.93939349,3861.57575719,42.0,42.0,?
2017-06-01 17:49:16.471794,4541.57575712,12.3636363624,4272.15151472,12.3636363624,3917.72727234,0.0,3855.90909052,210.181818161,4288.12121169,197.818181798,4506.03030258,3099.15151484,4187.15151473,3041.45454515,4333.96969654,1685.57575741,4977.3939389,2864.24242396,4171.18181776,3981.09090869,4421.03030259,12.3636363624,4206.21212079,0.0,4836.24242376,4.1212121208,4443.18181774,3861.57575719,42.0,42.0,?
2017-06-01 17:49:16.479428,4543.12121167,12.3636363624,4273.69696927,12.3636363624,3918.24242385,0.0,3857.96969658,210.181818161,4288.63636321,197.818181798,4506.03030258,3099.15151484,4181.99999958,3041.45454515,4332.93939351,1685.57575741,4978.42424193,2864.24242396,4171.69696928,3981.09090869,4431.84848441,12.3636363624,4208.27272685,0.0,4844.99999952,4.1212121208,4436.99999956,3861.57575719,42.0,42.0,?
2017-06-01 17:49:16.488391,4541.57575712,12.3636363624,4275.24242381,12.3636363624,3918.75757537,0.0,3859.51515113,210.181818161,4289.15151472,197.818181798,4504.99999955,3099.15151484,4179.93939352,3041.45454515,4335.51515108,1685.57575741,4990.27272677,2864.24242396,4169.63636322,3981.09090869,4424.63636319,12.3636363624,4207.75757534,0.0,4838.30302982,4.1212121208,4439.57575713,3861.57575719,42.0,42.0,?
2017-06-01 17:49:16.493706,4542.09090864,12.3636363624,4275.24242381,12.3636363624,3918.24242385,0.0,3859.51515113,210.181818161,4291.7272723,197.818181798,4508.09090864,3099.15151484,4188.69696928,3041.45454515,4337.06060563,1685.57575741,4989.24242374,2864.24242396,4165.5151511,3981.09090869,4421.5454541,12.3636363624,4209.30302988,0.0,4837.27272679,4.1212121208,4447.81818137,3861.57575719,42.0,42.0,?
2017-06-01 17:49:16.501935,4542.60606015,12.3636363624,4274.21212078,12.3636363624,3916.18181779,0.0,3860.03030264,210.181818161,4293.78787836,197.818181798,4512.72727228,3099.15151484,4196.93939352,3041.45454515,4338.60606017,1685.57575741,4983.57575708,2864.24242396,4164.48484807,3981.09090869,4427.21212077,12.3636363624,4209.8181814,0.0,4842.93939346,4.1212121208,4449.36363592,3861.57575719,42.0,42.0,?
2017-06-01 17:49:16.510868,4537.96969652,12.3636363624,4273.18181775,12.3636363624,3915.15151476,0.0,3862.60606022,210.181818161,4291.7272723,197.818181798,4510.1515147,3099.15151484,4191.78787837,3041.45454515,4339.12121169,1685.57575741,4983.57575708,2864.24242396,4161.90909049,3981.09090869,4424.63636319,12.3636363624,4205.69696928,0.0,4836.24242376,4.1212121208,4441.63636319,3861.57575719,42.0,42.0,?
2017-06-01 17:49:16.518405,4541.57575712,12.3636363624,4275.75757533,12.3636363624,3914.63636324,0.0,3862.0909087,210.181818161,4285.0303026,197.818181798,4506.54545409,3099.15151484,4188.18181776,3041.45454515,4334.99999957,1685.57575741,4980.48484799,2864.24242396,4158.30302989,3981.09090869,4428.2424238,12.3636363624,4208.78787837,0.0,4843.45454497,4.1212121208,4439.57575713,3861.57575719,42.0,42.0,?
2017-06-01 17:49:16.525775,4542.60606015,12.3636363624,4275.24242381,12.3636363624,3914.63636324,0.0,3857.96969658,210.181818161,4283.48484806,197.818181798,4508.09090864,3099.15151484,4193.84848443,3041.45454515,4332.93939351,1685.57575741,4977.3939389,2864.24242396,4160.87878746,3981.09090869,4421.03030259,12.3636363624,4208.78787837,0.0,4839.33333285,4.1212121208,4443.18181774,3861.57575719,42.0,42.0,?
2017-06-01 17:49:16.536369,4539.51515106,12.3636363624,4273.69696927,12.3636363624,3916.18181779,0.0,3858.4848481,210.181818161,4286.57575715,197.818181798,4505.51515106,3099.15151484,4197.45454503,3041.45454515,4339.12121169,1685.57575741,4987.6969692,2864.24242396,4170.66666625,3981.09090869,4425.15151471,12.3636363624,4206.21212079,0.0,4838.81818133,4.1212121208,4444.72727228,3861.57575719,42.0,42.0,?
2017-06-01 17:49:16.541419,4541.06060561,12.3636363624,4276.27272685,12.3636363624,3916.69696931,0.0,3859.51515113,210.181818161,4284.51515109,197.818181798,4503.454545,3099.15151484,4193.33333291,3041.45454515,4344.27272684,1685.57575741,5002.63636314,2864.24242396,4170.66666625,3981.09090869,4427.72727228,12.3636363624,4208.27272685,0.0,4844.484848,4.1212121208,4442.66666622,3861.57575719,42.0,42.0,?
2017-06-01 17:49:16.548942,4539.51515106,12.3636363624,4276.27272685,12.3636363624,3916.69696931,0.0,3855.90909052,210.181818161,4283.48484806,197.818181798,4507.57575713,3099.15151484,4183.03030261,3041.45454515,4337.57575714,1685.57575741,4999.03030253,2864.24242396,4163.96969655,3981.09090869,4415.36363592,12.3636363624,4208.27272685,0.0,4834.1818177,4.1212121208,4437.51515107,3861.57575719,42.0,42.0,?
2017-06-01 17:49:16.559712,4539.51515106,12.3636363624,4273.18181775,12.3636363624,3917.21212082,0.0,3849.21212083,210.181818161,4283.99999957,197.818181798,4509.12121167,3099.15151484,4179.93939352,3041.45454515,4331.39393896,1685.57575741,4983.06060556,2864.24242396,4159.33333292,3981.09090869,4427.72727228,12.3636363624,4208.27272685,0.0,4842.42424194,4.1212121208,4434.9393935,3861.57575719,42.0,42.0,?
2017-06-01 17:49:16.565276,4541.06060561,12.3636363624,4272.15151472,12.3636363624,3914.12121173,0.0,3846.12121174,210.181818161,4283.48484806,197.818181798,4503.96969652,3099.15151484,4180.96969655,3041.45454515,4331.39393896,1685.57575741,4972.24242375,2864.24242396,4155.72727231,3981.09090869,4426.69696925,12.3636363624,4208.27272685,0.0,4842.42424194,4.1212121208,4433.90909047,3861.57575719,42.0,42.0,?
2017-06-01 17:49:16.572828,4541.57575712,12.3636363624,4274.21212078,12.3636363624,3911.03030264,0.0,3850.24242386,210.181818161,4281.93939351,197.818181798,4504.48484803,3099.15151484,4179.42424201,3041.45454515,4330.36363593,1685.57575741,4968.12121162,2864.24242396,4153.15151474,3981.09090869,4424.12121168,12.3636363624,4208.27272685,0.0,4836.75757527,4.1212121208,4433.39393895,3861.57575719,42.0,42.0,?
2017-06-01 17:49:16.580805,4543.63636318,12.3636363624,4276.78787836,12.3636363624,3915.15151476,0.0,3854.87878749,210.181818161,4282.45454503,197.818181798,4510.66666622,3099.15151484,4180.96969655,3041.45454515,4329.84848442,1685.57575741,4969.66666617,2864.24242396,4158.30302989,3981.09090869,4433.39393895,12.3636363624,4208.78787837,0.0,4842.93939346,4.1212121208,4435.96969653,3861.57575719,42.0,42.0,?
2017-06-01 17:49:16.588458,4540.54545409,12.3636363624,4274.21212078,12.3636363624,3919.27272688,0.0,3854.36363598,210.181818161,4286.06060563,197.818181798,4510.1515147,3099.15151484,4189.72727231,3041.45454515,4334.99999957,1685.57575741,4976.36363587,2864.24242396,4164.48484807,3981.09090869,4424.63636319,12.3636363624,4208.27272685,0.0,4835.21212073,4.1212121208,4436.99999956,3861.57575719,42.0,42.0,?
2017-06-01 17:49:16.595719,4542.60606015,12.3636363624,4273.18181775,12.3636363624,3918.24242385,0.0,3857.45454507,210.181818161,4283.99999957,197.818181798,4509.12121167,3099.15151484,4192.30302988,3041.45454515,4334.48484805,1685.57575741,4978.93939344,2864.24242396,4166.03030261,3981.09090869,4427.21212077,12.3636363624,4208.78787837,0.0,4840.87878739,4.1212121208,4433.90909047,3861.57575719,42.0,42.0,?
2017-06-01 17:49:16.605732,4545.18181773,12.3636363624,4274.7272723,12.3636363624,3917.21212082,0.0,3860.03030264,210.181818161,4280.90909048,197.818181798,4509.12121167,3099.15151484,4186.63636322,3041.45454515,4327.78787836,1685.57575741,4974.81818132,2864.24242396,4162.42424201,3981.09090869,4426.69696925,12.3636363624,4206.72727231,0.0,4839.33333285,4.1212121208,4430.30302986,3861.57575719,42.0,42.0,?
2017-06-01 17:49:16.612557,4542.60606015,12.3636363624,4274.7272723,12.3636363624,3916.69696931,0.0,3854.87878749,210.181818161,4284.51515109,197.818181798,4508.09090864,3099.15151484,4190.24242382,3041.45454515,4330.36363593,1685.57575741,4976.36363587,2864.24242396,4156.75757534,3981.09090869,4424.63636319,12.3636363624,4207.24242382,0.0,4835.21212073,4.1212121208,4433.90909047,3861.57575719,42.0,42.0,?
2017-06-01 17:49:16.619264,4543.63636318,12.3636363624,4274.7272723,12.3636363624,3916.69696931,0.0,3852.30302992,210.181818161,4285.54545412,197.818181798,4509.12121167,3099.15151484,4196.424242,3041.45454515,4337.06060563,1685.57575741,4976.87878738,2864.24242396,4160.87878746,3981.09090869,4429.27272683,12.3636363624,4210.84848443,0.0,4844.484848,4.1212121208,4437.51515107,3861.57575719,42.0,42.0,?
2017-06-01 17:49:16.627242,4543.12121167,12.3636363624,4273.18181775,12.3636363624,3917.21212082,0.0,3855.39393901,210.181818161,4282.96969654,197.818181798,4508.60606016,3099.15151484,4194.87878746,3041.45454515,4333.45454502,1685.57575741,4966.06060556,2864.24242396,4169.1212117,3981.09090869,4422.57575713,12.3636363624,4207.75757534,0.0,4835.21212073,4.1212121208,4434.42424198,3861.57575719,42.0,42.0,?
2017-06-01 17:49:16.634748,4546.72727227,12.3636363624,4274.7272723,12.3636363624,3915.15151476,0.0,3853.33333295,210.181818161,4283.99999957,197.818181798,4509.12121167,3099.15151484,4195.90909049,3041.45454515,4330.87878745,1685.57575741,4960.90909041,2864.24242396,4168.09090867,3981.09090869,4430.81818138,12.3636363624,4206.72727231,0.0,4841.39393891,4.1212121208,4433.39393895,3861.57575719,42.0,42.0,?
2017-06-01 17:49:16.645385,4548.27272682,12.3636363624,4275.75757533,12.3636363624,3914.12121173,0.0,3848.1818178,210.181818161,4283.48484806,197.818181798,4508.09090864,3099.15151484,4200.03030261,3041.45454515,4332.42424199,1685.57575741,4966.57575708,2864.24242396,4161.39393898,3981.09090869,4427.72727228,12.3636363624,4206.72727231,0.0,4845.51515103,4.1212121208,4433.90909047,3861.57575719,42.0,42.0,?
2017-06-01 17:49:16.652679,4541.06060561,12.3636363624,4271.63636321,12.3636363624,3914.63636324,0.0,3849.21212083,210.181818161,4279.87878745,197.818181798,4506.03030258,3099.15151484,4199.5151511,3041.45454515,4332.93939351,1685.57575741,4972.75757526,2864.24242396,4159.33333292,3981.09090869,4420.51515107,12.3636363624,4206.72727231,0.0,4834.69696921,4.1212121208,4427.21212077,3861.57575719,42.0,42.0,?
2017-06-01 17:49:16.658823,4542.60606015,12.3636363624,4270.60606018,12.3636363624,3918.24242385,0.0,3854.36363598,210.181818161,4280.90909048,197.818181798,4508.09090864,3099.15151484,4200.03030261,3041.45454515,4336.54545411,1685.57575741,4975.84848435,2864.24242396,4164.99999958,3981.09090869,4432.87878744,12.3636363624,4210.84848443,0.0,4840.36363588,4.1212121208,4425.15151471,3861.57575719,42.0,42.0,?
2017-06-01 17:49:16.670065,4544.1515147,12.3636363624,4274.7272723,12.3636363624,3920.30302991,0.0,3860.54545416,210.181818161,4285.0303026,197.818181798,4511.69696925,3099.15151484,4202.60606019,3041.45454515,4339.6363632,1685.57575741,4974.81818132,2864.24242396,4169.63636322,3981.09090869,4425.66666622,12.3636363624,4207.75757534,0.0,4838.81818133,4.1212121208,4435.45454501,3861.57575719,42.0,42.0,?
2017-06-01 17:49:16.684578,4542.60606015,12.3636363624,4275.75757533,12.3636363624,3917.72727234,0.0,3858.4848481,210.181818161,4286.06060563,197.818181798,4509.12121167,3099.15151484,4201.06060564,3041.45454515,4335.51515108,1685.57575741,4970.18181768,2864.24242396,4167.06060564,3981.09090869,4424.63636319,12.3636363624,4206.21212079,0.0,4841.90909042,4.1212121208,4443.18181774,3861.57575719,42.0,42.0,?
2017-06-01 17:49:16.688899,4542.60606015,12.3636363624,4272.66666624,12.3636363624,3917.72727234,0.0,3849.72727234,210.181818161,4284.51515109,197.818181798,4506.03030258,3099.15151484,4196.93939352,3041.45454515,4330.36363593,1685.57575741,4966.06060556,2864.24242396,4155.2121208,3981.09090869,4426.69696925,12.3636363624,4209.30302988,0.0,4842.93939346,4.1212121208,4438.03030259,3861.57575719,42.0,42.0,?
2017-06-01 17:49:16.692006,4540.03030258,12.3636363624,4274.21212078,12.3636363624,3918.75757537,0.0,3847.15151477,210.181818161,4282.45454503,197.818181798,4508.09090864,3099.15151484,4191.27272685,3041.45454515,4329.84848442,1685.57575741,4959.87878738,2864.24242396,4153.66666625,3981.09090869,4423.09090865,12.3636363624,4207.75757534,0.0,4836.75757527,4.1212121208,4430.81818138,3861.57575719,42.0,42.0,?
2017-06-01 17:49:16.700607,4541.06060561,12.3636363624,4277.81818139,12.3636363624,3916.69696931,0.0,3845.60606022,210.181818161,4281.93939351,197.818181798,4508.60606016,3099.15151484,4192.30302988,3041.45454515,4331.90909048,1685.57575741,4955.24242375,2864.24242396,4163.45454504,3981.09090869,4432.36363592,12.3636363624,4208.27272685,0.0,4844.99999952,4.1212121208,4431.33333289,3861.57575719,42.0,42.0,?
2017-06-01 17:49:16.706221,4541.06060561,12.3636363624,4275.24242381,12.3636363624,3915.66666628,0.0,3845.60606022,210.181818161,4282.96969654,197.818181798,4507.57575713,3099.15151484,4195.39393897,3041.45454515,4331.39393896,1685.57575741,4957.30302981,2864.24242396,4163.96969655,3981.09090869,4424.12121168,12.3636363624,4206.72727231,0.0,4837.7878783,4.1212121208,4431.84848441,3861.57575719,42.0,42.0,?
2017-06-01 17:49:16.714789,4540.54545409,12.3636363624,4273.69696927,12.3636363624,3918.24242385,0.0,3850.24242386,210.181818161,4286.06060563,197.818181798,4508.60606016,3099.15151484,4196.93939352,3041.45454515,4331.90909048,1685.57575741,4963.9999995,2864.24242396,4158.8181814,3981.09090869,4425.15151471,12.3636363624,4207.24242382,0.0,4837.7878783,4.1212121208,4431.84848441,3861.57575719,42.0,42.0,?
2017-06-01 17:49:16.721663,4544.1515147,12.3636363624,4275.24242381,12.3636363624,3918.24242385,0.0,3853.33333295,210.181818161,4288.63636321,197.818181798,4510.66666622,3099.15151484,4201.57575716,3041.45454515,4337.57575714,1685.57575741,4972.24242375,2864.24242396,4161.39393898,3981.09090869,4429.78787834,12.3636363624,4207.24242382,0.0,4842.42424194,4.1212121208,4439.57575713,3861.57575719,42.0,42.0,?
2017-06-01 17:49:16.728761,4542.60606015,12.3636363624,4272.66666624,12.3636363624,3916.69696931,0.0,3851.7878784,210.181818161,4286.06060563,197.818181798,4509.63636319,3099.15151484,4204.66666625,3041.45454515,4341.18181775,1685.57575741,4975.33333284,2864.24242396,4164.99999958,3981.09090869,4422.06060562,12.3636363624,4204.66666625,0.0,4831.60606012,4.1212121208,4443.18181774,3861.57575719,42.0,42.0,?
2017-06-01 17:49:16.736678,4542.60606015,12.3636363624,4273.18181775,12.3636363624,3918.24242385,0.0,3851.27272689,210.181818161,4282.45454503,197.818181798,4507.57575713,3099.15151484,4198.99999958,3041.45454515,4336.54545411,1685.57575741,4965.03030253,2864.24242396,4162.42424201,3981.09090869,4429.27272683,12.3636363624,4206.21212079,0.0,4840.87878739,4.1212121208,4438.5454541,3861.57575719,42.0,42.0,?
2017-06-01 17:49:16.745350,4541.06060561,12.3636363624,4275.24242381,12.3636363624,3916.69696931,0.0,3852.30302992,210.181818161,4283.99999957,197.818181798,4510.1515147,3099.15151484,4194.87878746,3041.45454515,4333.45454502,1685.57575741,4953.6969692,2864.24242396,4162.93939352,3981.09090869,4423.09090865,12.3636363624,4205.18181776,0.0,4841.39393891,4.1212121208,4434.9393935,3861.57575719,42.0,42.0,?
2017-06-01 17:49:16.751777,4540.03030258,12.3636363624,4273.69696927,12.3636363624,3915.15151476,0.0,3851.7878784,210.181818161,4286.57575715,197.818181798,4508.60606016,3099.15151484,4195.90909049,3041.45454515,4333.45454502,1685.57575741,4963.48484799,2864.24242396,4164.48484807,3981.09090869,4423.60606016,12.3636363624,4206.72727231,0.0,4838.30302982,4.1212121208,4432.87878744,3861.57575719,42.0,42.0,?
2017-06-01 17:49:16.759724,4542.09090864,12.3636363624,4273.18181775,12.3636363624,3917.72727234,0.0,3848.69696931,210.181818161,4284.51515109,197.818181798,4504.48484803,3099.15151484,4190.24242382,3041.45454515,4328.81818139,1685.57575741,4972.24242375,2864.24242396,4157.27272686,3981.09090869,4430.81818138,12.3636363624,4210.33333291,0.0,4841.39393891,4.1212121208,4426.69696925,3861.57575719,42.0,42.0,?
2017-06-01 17:49:16.768323,4541.06060561,12.3636363624,4274.7272723,12.3636363624,3918.24242385,0.0,3848.1818178,210.181818161,4282.45454503,197.818181798,4508.09090864,3099.15151484,4187.15151473,3041.45454515,4328.30302987,1685.57575741,4960.90909041,2864.24242396,4153.66666625,3981.09090869,4421.03030259,12.3636363624,4207.75757534,0.0,4834.1818177,4.1212121208,4418.96969653,3861.57575719,42.0,42.0,?
2017-06-01 17:49:16.775803,4542.09090864,12.3636363624,4274.7272723,12.3636363624,3916.69696931,0.0,3848.69696931,210.181818161,4281.93939351,197.818181798,4509.12121167,3099.15151484,4194.87878746,3041.45454515,4332.93939351,1685.57575741,4949.57575708,2864.24242396,4160.87878746,3981.09090869,4427.72727228,12.3636363624,4207.75757534,0.0,4844.99999952,4.1212121208,4417.9393935,3861.57575719,42.0,42.0,?
2017-06-01 17:49:16.785685,4542.09090864,12.3636363624,4273.18181775,12.3636363624,3916.69696931,0.0,3847.15151477,210.181818161,4281.424242,197.818181798,4504.99999955,3099.15151484,4197.96969655,3041.45454515,4332.93939351,1685.57575741,4952.15151466,2864.24242396,4162.93939352,3981.09090869,4425.66666622,12.3636363624,4208.27272685,0.0,4843.45454497,4.1212121208,4424.63636319,3861.57575719,42.0,42.0,?
2017-06-01 17:49:16.804670,4542.60606015,12.3636363624,4274.21212078,12.3636363624,3917.21212082,0.0,3847.15151477,210.181818161,4281.424242,197.818181798,4504.99999955,3099.15151484,4193.33333291,3041.45454515,4331.90909048,1685.57575741,4960.90909041,2864.24242396,4160.87878746,3981.09090869,4421.5454541,12.3636363624,4208.78787837,0.0,4836.75757527,4.1212121208,4428.75757531,3861.57575719,42.0,42.0,?
2017-06-01 17:49:16.810146,4546.21212076,12.3636363624,4276.78787836,12.3636363624,3917.21212082,0.0,3848.1818178,210.181818161,4280.39393897,197.818181798,4508.09090864,3099.15151484,4191.27272685,3041.45454515,4332.93939351,1685.57575741,4971.21212072,2864.24242396,4163.45454504,3981.09090869,4425.15151471,12.3636363624,4209.30302988,0.0,4843.45454497,4.1212121208,4427.72727228,3861.57575719,42.0,42.0,?
2017-06-01 17:49:16.813355,4543.12121167,12.3636363624,4274.21212078,12.3636363624,3916.69696931,0.0,3845.60606022,210.181818161,4280.90909048,197.818181798,4508.09090864,3099.15151484,4193.33333291,3041.45454515,4333.45454502,1685.57575741,4974.30302981,2864.24242396,4166.54545413,3981.09090869,4418.96969653,12.3636363624,4206.72727231,0.0,4835.21212073,4.1212121208,4430.30302986,3861.57575719,42.0,42.0,?
2017-06-01 17:49:16.817120,4542.09090864,12.3636363624,4273.69696927,12.3636363624,3917.21212082,0.0,3844.57575719,210.181818161,4282.45454503,197.818181798,4506.54545409,3099.15151484,4192.8181814,3041.45454515,4334.99999957,1685.57575741,4961.93939344,2864.24242396,4167.06060564,3981.09090869,4429.27272683,12.3636363624,4207.75757534,0.0,4841.90909042,4.1212121208,4432.87878744,3861.57575719,42.0,42.0,?
2017-06-01 17:49:16.824940,4543.12121167,12.3636363624,4275.75757533,12.3636363624,3917.72727234,0.0,3847.66666628,210.181818161,4283.99999957,197.818181798,4508.09090864,3099.15151484,4186.1212117,3041.45454515,4333.96969654,1685.57575741,4954.72727223,2864.24242396,4166.03030261,3981.09090869,4425.66666622,12.3636363624,4207.24242382,0.0,4843.45454497,4.1212121208,4423.09090865,3861.57575719,42.0,42.0,?
2017-06-01 17:49:16.831313,4540.03030258,12.3636363624,4273.18181775,12.3636363624,3916.18181779,0.0,3849.21212083,210.181818161,4284.51515109,197.818181798,4509.12121167,3099.15151484,4188.18181776,3041.45454515,4331.90909048,1685.57575741,4961.93939344,2864.24242396,4165.5151511,3981.09090869,4418.96969653,12.3636363624,4206.72727231,0.0,4834.1818177,4.1212121208,4415.36363592,3861.57575719,42.0,42.0,?
2017-06-01 17:49:16.839981,4542.09090864,12.3636363624,4273.18181775,12.3636363624,3916.18181779,0.0,3848.69696931,210.181818161,4286.06060563,197.818181798,4506.54545409,3099.15151484,4195.39393897,3041.45454515,4334.99999957,1685.57575741,4963.9999995,2864.24242396,4171.18181776,3981.09090869,4429.27272683,12.3636363624,4208.27272685,0.0,4841.39393891,4.1212121208,4424.63636319,3861.57575719,42.0,42.0,?
2017-06-01 17:49:16.846439,4541.57575712,12.3636363624,4274.7272723,12.3636363624,3916.69696931,0.0,3849.72727234,210.181818161,4285.0303026,197.818181798,4506.54545409,3099.15151484,4193.33333291,3041.45454515,4337.06060563,1685.57575741,4960.90909041,2864.24242396,4170.66666625,3981.09090869,4423.60606016,12.3636363624,4205.69696928,0.0,4837.27272679,4.1212121208,4428.75757531,3861.57575719,42.0,42.0,?
2017-06-01 17:49:16.853787,4542.09090864,0.0,4275.24242381,12.3636363624,3915.66666628,0.0,3849.21212083,210.181818161,4281.93939351,197.818181798,4506.54545409,3099.15151484,4188.69696928,3041.45454515,4332.93939351,1685.57575741,4960.90909041,2864.24242396,4162.93939352,3981.09090869,4427.21212077,12.3636363624,4205.18181776,0.0,4841.39393891,4.1212121208,4424.12121168,3861.57575719,42.0,42.0,?
2017-06-01 17:49:16.863806,4541.57575712,0.0,4275.75757533,4.1212121208,3916.69696931,0.0,3850.75757537,210.181818161,4282.96969654,197.818181798,4504.99999955,3099.15151484,4187.66666625,3041.45454515,4330.87878745,1685.57575741,4965.03030253,2864.24242396,4166.03030261,3981.09090869,4426.69696925,12.3636363624,4206.72727231,0.0,4842.42424194,4.1212121208,4425.66666622,3861.57575719,42.0,42.0,?
2017-06-01 17:49:16.872123,4536.93939349,0.0,4274.7272723,4.1212121208,3917.72727234,0.0,3854.87878749,210.181818161,4285.54545412,197.818181798,4503.454545,3099.15151484,4188.18181776,3041.45454515,4334.99999957,1685.57575741,4969.66666617,2864.24242396,4176.84848443,3981.09090869,4419.99999956,12.3636363624,4206.21212079,0.0,4833.66666618,4.1212121208,4427.72727228,3865.69696931,42.0,42.0,?
2017-06-01 17:49:16.876690,4541.06060561,0.0,4274.21212078,4.1212121208,3915.15151476,12.3636363624,3852.81818143,210.181818161,4283.99999957,197.818181798,4501.90909046,3099.15151484,4185.60606019,3041.45454515,4332.93939351,1685.57575741,4963.9999995,2864.24242396,4175.30302989,3981.09090869,4429.27272683,12.3636363624,4206.21212079,0.0,4843.96969649,4.1212121208,4418.96969653,3865.69696931,42.0,42.0,?
2017-06-01 17:49:16.884731,4543.12121167,0.0,4274.7272723,4.1212121208,3914.63636324,12.3636363624,3848.69696931,197.818181798,4281.424242,197.818181798,4502.42424197,3099.15151484,4180.96969655,3041.45454515,4323.15151472,1685.57575741,4954.21212072,2864.24242396,4163.96969655,3981.09090869,4422.06060562,12.3636363624,4204.15151473,0.0,4841.90909042,4.1212121208,4410.21212077,3865.69696931,42.0,42.0,?
2017-06-01 17:49:16.896016,4543.12121167,0.0,4275.75757533,4.1212121208,3917.72727234,12.3636363624,3849.21212083,197.818181798,4282.96969654,201.939393919,4504.99999955,3099.15151484,4180.96969655,3041.45454515,4320.57575714,1685.57575741,4955.75757526,2864.24242396,4161.90909049,3981.09090869,4424.12121168,12.3636363624,4205.69696928,0.0,4842.93939346,4.1212121208,4409.18181774,3865.69696931,42.0,42.0,?
2017-06-01 17:49:16.901420,4546.21212076,0.0,4275.24242381,4.1212121208,3917.72727234,12.3636363624,3848.1818178,197.818181798,4285.0303026,201.939393919,4506.54545409,3099.15151484,4186.1212117,3041.45454515,4325.72727229,1685.57575741,4956.78787829,2864.24242396,4159.33333292,3981.09090869,4428.2424238,12.3636363624,4206.72727231,0.0,4844.99999952,4.1212121208,4408.15151471,3865.69696931,42.0,42.0,?
2017-06-01 17:49:16.908770,4542.09090864,0.0,4273.69696927,4.1212121208,3914.63636324,12.3636363624,3848.1818178,197.818181798,4282.96969654,201.939393919,4506.03030258,3099.15151484,4185.09090867,3045.57575727,4325.72727229,1685.57575741,4951.63636314,2864.24242396,4157.27272686,3981.09090869,4420.51515107,12.3636363624,4206.21212079,0.0,4835.21212073,4.1212121208,4406.09090865,3865.69696931,42.0,42.0,?
2017-06-01 17:49:16.917821,4541.57575712,0.0,4274.21212078,4.1212121208,3917.21212082,12.3636363624,3851.27272689,197.818181798,4282.45454503,201.939393919,4506.54545409,3099.15151484,4175.30302989,3045.57575727,4324.18181775,1681.45454529,4958.84848435,2864.24242396,4166.03030261,3981.09090869,4426.69696925,12.3636363624,4209.8181814,0.0,4842.42424194,4.1212121208,4412.27272683,3865.69696931,42.0,42.0,?
2017-06-01 17:49:16.923764,4544.1515147,0.0,4272.66666624,4.1212121208,3919.7878784,12.3636363624,3851.27272689,197.818181798,4280.90909048,201.939393919,4505.51515106,3099.15151484,4171.69696928,3045.57575727,4326.24242381,1681.45454529,4966.06060556,2860.12121184,4171.18181776,3981.09090869,4422.06060562,12.3636363624,4207.24242382,0.0,4838.81818133,4.1212121208,4414.33333289,3865.69696931,42.0,42.0,?
2017-06-01 17:49:16.932805,4544.1515147,0.0,4272.15151472,4.1212121208,3916.69696931,12.3636363624,3848.69696931,197.818181798,4276.78787836,201.939393919,4500.36363591,3099.15151484,4177.87878746,3045.57575727,4325.21212078,1681.45454529,4960.90909041,2860.12121184,4170.66666625,3972.84848445,4424.63636319,12.3636363624,4205.18181776,0.0,4838.30302982,4.1212121208,4410.21212077,3865.69696931,42.0,42.0,?
2017-06-01 17:49:16.940599,4542.09090864,0.0,4274.21212078,4.1212121208,3915.66666628,12.3636363624,3849.21212083,197.818181798,4279.87878745,201.939393919,4501.39393894,3099.15151484,4189.21212079,3045.57575727,4324.18181775,1681.45454529,4961.93939344,2860.12121184,4175.30302989,3972.84848445,4430.30302986,8.2424242416,4207.75757534,0.0,4843.45454497,4.1212121208,4415.36363592,3865.69696931,42.0,42.0,?
2017-06-01 17:49:16.950015,4537.454545,0.0,4272.66666624,4.1212121208,3917.72727234,12.3636363624,3850.24242386,197.818181798,4282.96969654,201.939393919,4508.09090864,3099.15151484,4193.33333291,3045.57575727,4326.24242381,1681.45454529,4967.09090859,2860.12121184,4175.30302989,3972.84848445,4425.15151471,8.2424242416,4206.72727231,12.3636363624,4835.21212073,4.1212121208,4417.9393935,3865.69696931,42.0,42.0,?
2017-06-01 17:49:16.956520,4541.57575712,0.0,4271.63636321,4.1212121208,3917.72727234,12.3636363624,3849.21212083,197.818181798,4273.69696927,201.939393919,4506.03030258,3099.15151484,4181.48484807,3045.57575727,4320.57575714,1681.45454529,4957.30302981,2860.12121184,4167.06060564,3972.84848445,4431.33333289,8.2424242416,4207.75757534,12.3636363624,4845.51515103,12.3636363624,4408.66666623,3865.69696931,42.0,42.0,?
2017-06-01 17:49:16.963536,4544.1515147,0.0,4272.15151472,4.1212121208,3917.21212082,12.3636363624,3843.54545416,197.818181798,4263.39393897,201.939393919,4499.8484844,3099.15151484,4167.57575716,3045.57575727,4313.36363593,1681.45454529,4952.15151466,2860.12121184,4163.45454504,3985.21212081,4423.09090865,8.2424242416,4207.75757534,12.3636363624,4841.90909042,12.3636363624,4404.03030259,3865.69696931,42.0,42.0,?
2017-06-01 17:49:16.971321,4541.06060561,0.0,4272.66666624,4.1212121208,3917.72727234,12.3636363624,3840.45454507,197.818181798,4271.12121169,201.939393919,4505.51515106,3099.15151484,4173.24242383,3045.57575727,4316.96969654,1681.45454529,4962.45454496,2860.12121184,4163.96969655,3985.21212081,4425.15151471,8.2424242416,4208.78787837,12.3636363624,4835.21212073,12.3636363624,4409.69696926,3865.69696931,42.0,42.0,?
2017-06-01 17:49:16.978789,4543.12121167,0.0,4274.21212078,4.1212121208,3919.27272688,12.3636363624,3844.57575719,197.818181798,4277.30302988,201.939393919,4508.60606016,3099.15151484,4184.57575716,3045.57575727,4318.51515108,1681.45454529,4957.30302981,2860.12121184,4161.90909049,3985.21212081,4433.90909047,8.2424242416,4208.78787837,0.0,4842.42424194,12.3636363624,4410.72727229,3865.69696931,42.0,42.0,?
2017-06-01 17:49:16.989326,4542.09090864,0.0,4272.15151472,4.1212121208,3919.7878784,12.3636363624,3847.66666628,197.818181798,4270.60606018,201.939393919,4499.8484844,3099.15151484,4177.36363595,3045.57575727,4316.45454502,1681.45454529,4952.15151466,2860.12121184,4167.57575716,3985.21212081,4422.57575713,8.2424242416,4205.69696928,0.0,4836.24242376,12.3636363624,4409.69696926,3865.69696931,42.0,42.0,?
2017-06-01 17:49:16.996904,4544.1515147,0.0,4272.66666624,4.1212121208,3919.27272688,12.3636363624,3848.69696931,197.818181798,4272.15151472,201.939393919,4501.90909046,3099.15151484,4174.27272686,3045.57575727,4320.57575714,1681.45454529,4970.6969692,2860.12121184,4178.90909049,3985.21212081,4429.78787834,8.2424242416,4208.27272685,0.0,4841.90909042,12.3636363624,4415.36363592,3865.69696931,42.0,42.0,?
2017-06-01 17:49:17.003022,4543.63636318,0.0,4274.21212078,4.1212121208,3917.21212082,12.3636363624,3848.69696931,197.818181798,4280.39393897,201.939393919,4514.27272682,3099.15151484,4193.33333291,3045.57575727,4326.75757532,1681.45454529,4979.96969647,2860.12121184,4184.06060564,3985.21212081,4429.27272683,8.2424242416,4208.27272685,0.0,4842.42424194,12.3636363624,4421.5454541,3865.69696931,42.0,42.0,?
2017-06-01 17:49:17.012629,4540.03030258,0.0,4273.18181775,4.1212121208,3915.15151476,12.3636363624,3849.21212083,197.818181798,4281.424242,201.939393919,4509.12121167,3099.15151484,4207.24242382,3045.57575727,4333.45454502,1681.45454529,4966.57575708,2860.12121184,4186.63636322,3985.21212081,4424.63636319,8.2424242416,4204.66666625,0.0,4836.75757527,12.3636363624,4425.15151471,3865.69696931,42.0,42.0,?
2017-06-01 17:49:17.018024,4544.66666621,0.0,4274.21212078,4.1212121208,3915.66666628,12.3636363624,3849.72727234,197.818181798,4280.39393897,201.939393919,4501.90909046,3099.15151484,4196.424242,3045.57575727,4332.42424199,1681.45454529,4955.75757526,2860.12121184,4178.39393898,3985.21212081,4430.81818138,8.2424242416,4206.21212079,0.0,4842.93939346,12.3636363624,4427.21212077,3865.69696931,42.0,42.0,?
2017-06-01 17:49:17.032132,4545.18181773,0.0,4276.27272685,4.1212121208,3916.69696931,12.3636363624,3850.24242386,197.818181798,4282.45454503,201.939393919,4506.54545409,3099.15151484,4184.06060564,3045.57575727,4319.54545411,1681.45454529,4956.27272678,2860.12121184,4167.06060564,3985.21212081,4423.09090865,8.2424242416,4208.78787837,0.0,4836.75757527,12.3636363624,4424.63636319,3865.69696931,42.0,42.0,?
2017-06-01 17:49:17.034950,4543.63636318,0.0,4275.75757533,4.1212121208,3916.18181779,12.3636363624,3850.24242386,197.818181798,4288.12121169,201.939393919,4510.66666622,3099.15151484,4193.33333291,3045.57575727,4317.48484805,1681.45454529,4960.3939389,2860.12121184,4171.18181776,3985.21212081,4429.27272683,8.2424242416,4210.33333291,0.0,4842.42424194,12.3636363624,4420.51515107,3865.69696931,42.0,42.0,?
2017-06-01 17:49:17.044404,4543.63636318,0.0,4274.7272723,4.1212121208,3916.18181779,12.3636363624,3847.15151477,197.818181798,4293.78787836,201.939393919,4511.69696925,3099.15151484,4201.57575716,3045.57575727,4322.12121169,1681.45454529,4959.87878738,2860.12121184,4174.78787837,3985.21212081,4428.75757531,8.2424242416,4205.69696928,0.0,4841.90909042,12.3636363624,4412.27272683,3865.69696931,42.0,42.0,?
2017-06-01 17:49:17.049386,4541.57575712,0.0,4275.75757533,4.1212121208,3916.69696931,12.3636363624,3846.63636325,197.818181798,4291.7272723,201.939393919,4509.63636319,3099.15151484,4192.30302988,3045.57575727,4317.99999957,1681.45454529,4956.78787829,2860.12121184,4164.48484807,3985.21212081,4424.12121168,8.2424242416,4201.57575716,0.0,4835.72727224,12.3636363624,4405.57575714,3865.69696931,42.0,42.0,?
2017-06-01 17:49:17.059446,4542.60606015,0.0,4276.78787836,4.1212121208,3917.72727234,12.3636363624,3848.1818178,197.818181798,4281.93939351,201.939393919,4506.03030258,3099.15151484,4187.15151473,3045.57575727,4315.93939351,1681.45454529,4956.27272678,2860.12121184,4160.87878746,3985.21212081,4432.36363592,8.2424242416,4207.24242382,0.0,4844.99999952,12.3636363624,4413.81818138,3865.69696931,42.0,42.0,?
2017-06-01 17:49:17.065030,4543.63636318,0.0,4274.7272723,4.1212121208,3916.18181779,12.3636363624,3849.72727234,197.818181798,4282.45454503,201.939393919,4507.06060561,3099.15151484,4198.48484806,3045.57575727,4326.24242381,1681.45454529,4960.3939389,2860.12121184,4173.24242383,3985.21212081,4423.09090865,8.2424242416,4208.78787837,0.0,4838.30302982,12.3636363624,4427.21212077,3865.69696931,42.0,42.0,?
2017-06-01 17:49:17.074820,4543.12121167,0.0,4275.24242381,4.1212121208,3915.66666628,12.3636363624,3852.30302992,197.818181798,4287.60606018,201.939393919,4507.06060561,3099.15151484,4208.78787837,3045.57575727,4334.99999957,1681.45454529,4961.93939344,2860.12121184,4187.15151473,3985.21212081,4425.15151471,8.2424242416,4207.24242382,0.0,4841.39393891,12.3636363624,4433.90909047,3865.69696931,42.0,42.0,?
2017-06-01 17:49:17.083149,4542.09090864,0.0,4275.24242381,4.1212121208,3915.66666628,12.3636363624,3851.27272689,197.818181798,4283.48484806,201.939393919,4501.90909046,3099.15151484,4203.1212117,3045.57575727,4330.36363593,1681.45454529,4960.90909041,2860.12121184,4190.24242382,3985.21212081,4428.2424238,8.2424242416,4206.21212079,0.0,4844.484848,12.3636363624,4431.84848441,3865.69696931,42.0,42.0,?
2017-06-01 17:49:17.089629,4541.57575712,0.0,4272.66666624,4.1212121208,3916.18181779,12.3636363624,3847.66666628,197.818181798,4280.39393897,201.939393919,4503.454545,3099.15151484,4194.36363594,3045.57575727,4323.15151472,1681.45454529,4959.87878738,2860.12121184,4183.54545413,3985.21212081,4421.03030259,8.2424242416,4204.66666625,0.0,4835.21212073,12.3636363624,4424.63636319,3865.69696931,42.0,42.0,?
2017-06-01 17:49:17.096135,4544.66666621,0.0,4274.7272723,4.1212121208,3915.66666628,12.3636363624,3846.63636325,197.818181798,4281.93939351,201.939393919,4512.21212076,3099.15151484,4195.39393897,3045.57575727,4322.12121169,1681.45454529,4956.78787829,2860.12121184,4177.87878746,3985.21212081,4430.30302986,8.2424242416,4208.27272685,0.0,4843.45454497,12.3636363624,4423.60606016,3865.69696931,42.0,42.0,?
2017-06-01 17:49:17.104520,4541.57575712,0.0,4275.75757533,4.1212121208,3911.54545415,12.3636363624,3849.21212083,197.818181798,4285.54545412,201.939393919,4511.18181773,3099.15151484,4202.09090867,3045.57575727,4327.78787836,1681.45454529,4959.87878738,2860.12121184,4182.5151511,3985.21212081,4428.2424238,8.2424242416,4207.24242382,0.0,4839.84848436,12.3636363624,4426.69696925,3865.69696931,42.0,42.0,?
2017-06-01 17:49:17.111711,4541.06060561,0.0,4273.18181775,4.1212121208,3913.0909087,12.3636363624,3850.75757537,197.818181798,4288.12121169,201.939393919,4506.54545409,3099.15151484,4207.75757534,3045.57575727,4331.39393896,1681.45454529,4972.75757526,2860.12121184,4190.75757534,3985.21212081,4430.81818138,8.2424242416,4206.72727231,0.0,4841.90909042,12.3636363624,4422.57575713,3865.69696931,42.0,42.0,?
2017-06-01 17:49:17.121127,4546.21212076,0.0,4272.66666624,4.1212121208,3917.21212082,12.3636363624,3848.69696931,197.818181798,4286.06060563,201.939393919,4510.1515147,3099.15151484,4202.09090867,3045.57575727,4329.3333329,1681.45454529,4976.36363587,2860.12121184,4190.24242382,3985.21212081,4431.84848441,8.2424242416,4209.8181814,0.0,4844.484848,12.3636363624,4415.36363592,3865.69696931,42.0,42.0,?
2017-06-01 17:49:17.128778,4542.09090864,0.0,4274.21212078,4.1212121208,3914.63636324,12.3636363624,3846.63636325,197.818181798,4283.99999957,201.939393919,4511.18181773,3099.15151484,4192.30302988,3045.57575727,4325.72727229,1681.45454529,4962.45454496,2860.12121184,4183.03030261,3985.21212081,4423.09090865,8.2424242416,4208.27272685,0.0,4835.21212073,12.3636363624,4415.87878744,3865.69696931,42.0,42.0,?
2017-06-01 17:49:17.135457,4541.06060561,0.0,4275.24242381,4.1212121208,3914.12121173,12.3636363624,3848.69696931,197.818181798,4285.54545412,201.939393919,4507.57575713,3099.15151484,4194.36363594,3045.57575727,4325.72727229,1681.45454529,4953.6969692,2860.12121184,4179.93939352,3985.21212081,4430.81818138,8.2424242416,4208.27272685,0.0,4846.54545406,12.3636363624,4418.45454501,3865.69696931,42.0,42.0,?
2017-06-01 17:49:17.144342,4543.12121167,0.0,4274.21212078,4.1212121208,3915.66666628,12.3636363624,3852.81818143,197.818181798,4286.06060563,201.939393919,4508.09090864,3099.15151484,4201.57575716,3045.57575727,4329.3333329,1681.45454529,4966.57575708,2860.12121184,4181.99999958,3985.21212081,4422.57575713,8.2424242416,4207.75757534,0.0,4840.87878739,12.3636363624,4417.42424198,3865.69696931,42.0,42.0,?
2017-06-01 17:49:17.151896,4542.60606015,0.0,4273.18181775,4.1212121208,3914.63636324,12.3636363624,3850.75757537,197.818181798,4282.96969654,201.939393919,4506.03030258,3099.15151484,4200.54545413,3045.57575727,4331.39393896,1681.45454529,4982.54545405,2860.12121184,4189.21212079,3985.21212081,4422.06060562,8.2424242416,4209.30302988,0.0,4834.69696921,12.3636363624,4419.99999956,3865.69696931,42.0,42.0,?
2017-06-01 17:49:17.158779,4543.12121167,0.0,4274.21212078,4.1212121208,3917.21212082,12.3636363624,3850.24242386,197.818181798,4281.93939351,201.939393919,4502.93939349,3099.15151484,4197.96969655,3045.57575727,4330.87878745,1681.45454529,4977.90909041,2860.12121184,4198.99999958,3985.21212081,4429.27272683,8.2424242416,4208.27272685,0.0,4841.90909042,12.3636363624,4424.63636319,3865.69696931,42.0,42.0,?
2017-06-01 17:49:17.167721,4540.54545409,0.0,4273.18181775,4.1212121208,3919.27272688,12.3636363624,3851.7878784,197.818181798,4282.96969654,201.939393919,4506.54545409,3099.15151484,4198.48484806,3045.57575727,4329.84848442,1681.45454529,4962.96969647,2860.12121184,4194.87878746,3985.21212081,4421.5454541,8.2424242416,4205.18181776,0.0,4836.75757527,12.3636363624,4421.5454541,3865.69696931,42.0,42.0,?
2017-06-01 17:49:17.175752,4543.12121167,0.0,4272.66666624,4.1212121208,3915.66666628,12.3636363624,3847.66666628,197.818181798,4281.93939351,201.939393919,4507.06060561,3099.15151484,4191.27272685,3045.57575727,4326.75757532,1681.45454529,4964.51515102,2860.12121184,4177.36363595,3985.21212081,4428.2424238,8.2424242416,4207.75757534,0.0,4842.42424194,12.3636363624,4416.39393895,3865.69696931,42.0,42.0,?
2017-06-01 17:49:17.181676,4544.1515147,0.0,4274.7272723,4.1212121208,3915.66666628,12.3636363624,3850.24242386,197.818181798,4282.96969654,201.939393919,4506.54545409,3099.15151484,4184.06060564,3045.57575727,4326.24242381,1681.45454529,4972.75757526,2860.12121184,4174.27272686,3985.21212081,4425.66666622,8.2424242416,4208.78787837,0.0,4839.33333285,12.3636363624,4417.9393935,3865.69696931,42.0,42.0,?
2017-06-01 17:49:17.191263,4541.57575712,0.0,4275.24242381,4.1212121208,3917.72727234,12.3636363624,3864.15151477,197.818181798,4286.57575715,201.939393919,4508.09090864,3099.15151484,4188.69696928,3045.57575727,4327.78787836,1681.45454529,4974.30302981,2860.12121184,4190.24242382,3985.21212081,4425.15151471,8.2424242416,4208.27272685,0.0,4835.72727224,12.3636363624,4423.09090865,3865.69696931,42.0,42.0,?
2017-06-01 17:49:17.198464,4543.63636318,0.0,4275.75757533,4.1212121208,3918.24242385,12.3636363624,3868.27272689,197.818181798,4287.09090866,201.939393919,4505.51515106,3099.15151484,4190.24242382,3045.57575727,4327.78787836,1681.45454529,4973.78787829,2860.12121184,4196.93939352,3985.21212081,4429.78787834,8.2424242416,4207.75757534,0.0,4842.93939346,12.3636363624,4425.66666622,3865.69696931,42.0,42.0,?
2017-06-01 17:49:17.205653,4543.63636318,0.0,4274.7272723,4.1212121208,3917.72727234,12.3636363624,3856.42424204,197.818181798,4285.0303026,201.939393919,4504.48484803,3099.15151484,4186.1212117,3045.57575727,4329.3333329,1681.45454529,4970.18181768,2860.12121184,4187.15151473,3985.21212081,4419.99999956,8.2424242416,4203.1212117,0.0,4834.1818177,12.3636363624,4425.15151471,3865.69696931,42.0,42.0,?
2017-06-01 17:49:17.214133,4544.1515147,0.0,4274.21212078,4.1212121208,3916.18181779,12.3636363624,3855.90909052,197.818181798,4285.0303026,201.939393919,4507.57575713,3099.15151484,4191.78787837,3045.57575727,4333.45454502,1681.45454529,4965.03030253,2860.12121184,4181.48484807,3985.21212081,4429.27272683,8.2424242416,4205.18181776,0.0,4843.45454497,12.3636363624,4425.66666622,3865.69696931,42.0,42.0,?
2017-06-01 17:49:17.222633,4544.66666621,0.0,4275.24242381,4.1212121208,3916.69696931,12.3636363624,3860.54545416,197.818181798,4283.99999957,201.939393919,4505.51515106,3099.15151484,4196.93939352,3045.57575727,4328.30302987,1681.45454529,4971.21212072,2860.12121184,4183.54545413,3985.21212081,4428.2424238,8.2424242416,4207.24242382,0.0,4847.57575709,12.3636363624,4423.60606016,3865.69696931,42.0,42.0,?
2017-06-01 17:49:17.230274,4543.12121167,0.0,4274.21212078,4.1212121208,3916.69696931,12.3636363624,3854.36363598,197.818181798,4282.45454503,201.939393919,4503.96969652,3099.15151484,4192.30302988,3045.57575727,4321.60606017,1681.45454529,4976.87878738,2860.12121184,4188.69696928,3985.21212081,4422.57575713,8.2424242416,4207.24242382,0.0,4838.81818133,12.3636363624,4430.30302986,3865.69696931,42.0,42.0,?
2017-06-01 17:49:17.237265,4544.66666621,0.0,4274.21212078,4.1212121208,3916.18181779,12.3636363624,3849.21212083,197.818181798,4282.45454503,201.939393919,4509.63636319,3099.15151484,4189.21212079,3045.57575727,4325.21212078,1681.45454529,4966.06060556,2860.12121184,4191.78787837,3985.21212081,4430.30302986,8.2424242416,4208.78787837,0.0,4842.42424194,12.3636363624,4443.69696925,3865.69696931,42.0,42.0,?
2017-06-01 17:49:17.244997,4542.60606015,0.0,4273.69696927,4.1212121208,3916.18181779,12.3636363624,3851.27272689,197.818181798,4282.45454503,201.939393919,4510.66666622,3099.15151484,4186.63636322,3045.57575727,4324.18181775,1681.45454529,4956.78787829,2860.12121184,4187.66666625,3985.21212081,4422.57575713,8.2424242416,4206.21212079,0.0,4836.24242376,12.3636363624,4441.63636319,3865.69696931,42.0,42.0,?
2017-06-01 17:49:17.256102,4543.63636318,0.0,4275.24242381,4.1212121208,3917.72727234,12.3636363624,3851.27272689,197.818181798,4283.99999957,201.939393919,4507.57575713,3099.15151484,4178.90909049,3045.57575727,4316.96969654,1681.45454529,4961.42424193,2860.12121184,4181.48484807,3985.21212081,4426.18181774,8.2424242416,4208.27272685,0.0,4842.42424194,12.3636363624,4428.75757531,3865.69696931,42.0,42.0,?
2017-06-01 17:49:17.263399,4543.63636318,0.0,4274.7272723,4.1212121208,3918.24242385,12.3636363624,3849.72727234,197.818181798,4281.93939351,201.939393919,4510.1515147,3099.15151484,4178.39393898,3045.57575727,4320.06060563,1681.45454529,4970.6969692,2860.12121184,4180.96969655,3985.21212081,4425.15151471,8.2424242416,4209.30302988,0.0,4843.45454497,12.3636363624,4423.60606016,3865.69696931,42.0,42.0,?
2017-06-01 17:49:17.273193,4538.48484803,0.0,4272.15151472,4.1212121208,3916.69696931,12.3636363624,3849.72727234,197.818181798,4275.24242381,201.939393919,4508.09090864,3099.15151484,4187.15151473,3045.57575727,4325.21212078,1681.45454529,4972.24242375,2860.12121184,4184.06060564,3985.21212081,4422.06060562,8.2424242416,4204.66666625,0.0,4834.69696921,12.3636363624,4430.30302986,3865.69696931,42.0,42.0,?
2017-06-01 17:49:17.276388,4543.63636318,0.0,4274.7272723,4.1212121208,3915.15151476,12.3636363624,3847.66666628,197.818181798,4281.424242,201.939393919,4507.06060561,3099.15151484,4190.75757534,3045.57575727,4325.21212078,1681.45454529,4959.36363587,2860.12121184,4185.09090867,3985.21212081,4425.66666622,8.2424242416,4206.21212079,0.0,4837.27272679,12.3636363624,4440.09090865,3865.69696931,42.0,42.0,?
2017-06-01 17:49:17.285719,4543.63636318,0.0,4274.7272723,4.1212121208,3915.15151476,12.3636363624,3847.66666628,197.818181798,4283.99999957,201.939393919,4510.1515147,3099.15151484,4187.66666625,3045.57575727,4325.21212078,1681.45454529,4959.36363587,2860.12121184,4185.09090867,3985.21212081,4425.66666622,8.2424242416,4206.21212079,0.0,4837.27272679,12.3636363624,4440.60606016,3865.69696931,42.0,42.0,?
2017-06-01 17:49:17.291673,4542.09090864,0.0,4271.63636321,4.1212121208,3915.66666628,12.3636363624,3850.75757537,197.818181798,4283.99999957,201.939393919,4508.60606016,3099.15151484,4190.24242382,3045.57575727,4328.81818139,1681.45454529,4964.51515102,2860.12121184,4184.57575716,3985.21212081,4431.33333289,8.2424242416,4207.24242382,0.0,4839.84848436,12.3636363624,4433.90909047,3865.69696931,42.0,42.0,?
2017-06-01 17:49:17.299859,4543.63636318,0.0,4270.60606018,4.1212121208,3917.21212082,12.3636363624,3851.27272689,197.818181798,4283.48484806,201.939393919,4504.99999955,3099.15151484,4197.96969655,3045.57575727,4331.39393896,1681.45454529,4973.78787829,2860.12121184,4185.60606019,3985.21212081,4430.30302986,8.2424242416,4207.24242382,0.0,4842.42424194,12.3636363624,4434.42424198,3865.69696931,42.0,42.0,?
2017-06-01 17:49:17.309963,4540.03030258,0.0,4271.63636321,4.1212121208,3917.72727234,12.3636363624,3850.75757537,197.818181798,4287.09090866,201.939393919,4507.57575713,3099.15151484,4204.66666625,3045.57575727,4339.6363632,1681.45454529,4982.54545405,2860.12121184,4192.30302988,3985.21212081,4419.48484804,8.2424242416,4207.24242382,0.0,4836.75757527,12.3636363624,4446.78787834,3865.69696931,42.0,42.0,?
2017-06-01 17:49:17.316528,4540.54545409,0.0,4274.21212078,4.1212121208,3916.69696931,12.3636363624,3855.90909052,197.818181798,4296.87878745,201.939393919,4513.75757531,3099.15151484,4207.75757534,3045.57575727,4344.27272684,1681.45454529,4988.21212071,2860.12121184,4202.60606019,3985.21212081,4429.78787834,8.2424242416,4208.27272685,0.0,4847.06060558,12.3636363624,4454.51515107,3865.69696931,42.0,42.0,?
2017-06-01 17:49:17.323367,4542.60606015,0.0,4274.7272723,4.1212121208,3916.18181779,12.3636363624,3856.93939355,197.818181798,4298.42424199,201.939393919,4511.69696925,3099.15151484,4204.66666625,3045.57575727,4335.51515108,1681.45454529,4985.63636314,2860.12121184,4201.57575716,3985.21212081,4424.63636319,8.2424242416,4206.21212079,0.0,4838.81818133,12.3636363624,4448.8484844,3865.69696931,42.0,42.0,?
2017-06-01 17:49:17.330763,4543.63636318,0.0,4273.18181775,4.1212121208,3918.75757537,12.3636363624,3851.7878784,197.818181798,4289.66666624,201.939393919,4507.06060561,3099.15151484,4197.96969655,3045.57575727,4329.3333329,1681.45454529,4978.93939344,2860.12121184,4192.8181814,3985.21212081,4424.63636319,8.2424242416,4208.27272685,0.0,4836.24242376,12.3636363624,4438.5454541,3865.69696931,42.0,42.0,?
2017-06-01 17:49:17.341427,4543.63636318,0.0,4273.69696927,4.1212121208,3919.7878784,12.3636363624,3854.87878749,197.818181798,4286.06060563,201.939393919,4509.63636319,3099.15151484,4203.1212117,3045.57575727,4337.06060563,1681.45454529,4978.42424193,2860.12121184,4194.87878746,3985.21212081,4428.75757531,8.2424242416,4209.8181814,0.0,4843.96969649,12.3636363624,4439.06060562,3865.69696931,42.0,42.0,?
2017-06-01 17:49:17.347439,4540.03030258,0.0,4275.24242381,4.1212121208,3916.69696931,12.3636363624,3862.60606022,197.818181798,4292.24242381,201.939393919,4511.18181773,3099.15151484,4213.93939352,3045.57575727,4343.24242381,1681.45454529,4983.06060556,2860.12121184,4203.63636322,3985.21212081,4422.06060562,8.2424242416,4205.69696928,0.0,4835.72727224,12.3636363624,4445.75757531,3865.69696931,42.0,42.0,?
2017-06-01 17:49:17.357515,4541.57575712,0.0,4276.78787836,4.1212121208,3915.66666628,12.3636363624,3864.15151477,197.818181798,4297.90909048,201.939393919,4509.12121167,3099.15151484,4209.8181814,3045.57575727,4337.06060563,1681.45454529,4979.96969647,2860.12121184,4202.60606019,3985.21212081,4430.81818138,8.2424242416,4205.69696928,0.0,4842.42424194,12.3636363624,4446.27272683,3865.69696931,42.0,42.0,?
2017-06-01 17:49:17.364157,4542.09090864,4.1212121208,4274.7272723,4.1212121208,3916.18181779,12.3636363624,3860.54545416,197.818181798,4295.84848442,201.939393919,4511.18181773,3099.15151484,4198.99999958,3045.57575727,4331.39393896,1681.45454529,4971.21212072,2860.12121184,4193.33333291,3985.21212081,4426.18181774,8.2424242416,4205.69696928,0.0,4839.33333285,12.3636363624,4442.15151471,3865.69696931,42.0,42.0,?
2017-06-01 17:49:17.375215,4540.03030258,4.1212121208,4273.69696927,12.3636363624,3915.15151476,12.3636363624,3855.39393901,197.818181798,4289.15151472,201.939393919,4510.1515147,3099.15151484,4205.69696928,3045.57575727,4334.99999957,1681.45454529,4972.24242375,2860.12121184,4195.39393897,3985.21212081,4425.66666622,8.2424242416,4205.69696928,0.0,4839.33333285,12.3636363624,4442.15151471,3865.69696931,42.0,42.0,?
2017-06-01 17:49:17.378873,4542.60606015,4.1212121208,4274.7272723,12.3636363624,3915.15151476,12.3636363624,3849.72727234,197.818181798,4283.48484806,201.939393919,4506.03030258,3099.15151484,4210.33333291,3045.57575727,4335.51515108,1681.45454529,4982.03030253,2860.12121184,4200.54545413,3985.21212081,4428.75757531,8.2424242416,4207.75757534,0.0,4847.57575709,12.3636363624,4444.72727228,3869.81818143,42.0,42.0,?
2017-06-01 17:49:17.387811,4540.03030258,4.1212121208,4275.24242381,12.3636363624,3917.21212082,0.0,3849.72727234,197.818181798,4283.99999957,201.939393919,4506.54545409,3099.15151484,4195.39393897,3045.57575727,4330.36363593,1681.45454529,4984.60606011,2860.12121184,4192.8181814,3985.21212081,4420.51515107,8.2424242416,4205.69696928,0.0,4837.27272679,12.3636363624,4440.60606016,3869.81818143,42.0,42.0,?
2017-06-01 17:49:17.394719,4541.06060561,4.1212121208,4275.75757533,12.3636363624,3917.72727234,0.0,3851.27272689,201.939393919,4283.48484806,201.939393919,4504.99999955,3099.15151484,4188.18181776,3045.57575727,4330.87878745,1681.45454529,4971.72727223,2860.12121184,4185.60606019,3985.21212081,4430.81818138,8.2424242416,4207.24242382,0.0,4843.45454497,12.3636363624,4438.03030259,3869.81818143,42.0,42.0,?
2017-06-01 17:49:17.401167,4542.60606015,4.1212121208,4274.7272723,12.3636363624,3913.60606021,0.0,3848.1818178,201.939393919,4277.81818139,201.939393919,4502.93939349,3099.15151484,4192.30302988,3045.57575727,4330.36363593,1681.45454529,4955.75757526,2860.12121184,4186.63636322,3985.21212081,4425.66666622,8.2424242416,4207.75757534,0.0,4842.42424194,12.3636363624,4442.15151471,3869.81818143,42.0,42.0,?
2017-06-01 17:49:17.409634,4541.57575712,4.1212121208,4272.66666624,12.3636363624,3911.03030264,0.0,3845.60606022,201.939393919,4276.78787836,201.939393919,4504.48484803,3099.15151484,4189.72727231,3045.57575727,4323.66666623,1681.45454529,4963.48484799,2860.12121184,4190.75757534,3985.21212081,4420.51515107,8.2424242416,4205.18181776,0.0,4837.27272679,12.3636363624,4442.15151471,3869.81818143,42.0,42.0,?
2017-06-01 17:49:17.416686,4543.63636318,4.1212121208,4273.18181775,12.3636363624,3914.12121173,0.0,3852.30302992,201.939393919,4280.39393897,201.939393919,4500.87878743,3099.15151484,4188.69696928,3037.33333303,4323.15151472,1681.45454529,4980.9999995,2860.12121184,4190.75757534,3985.21212081,4429.27272683,8.2424242416,4205.18181776,0.0,4842.93939346,12.3636363624,4441.63636319,3869.81818143,42.0,42.0,?
2017-06-01 17:49:17.426742,4541.06060561,4.1212121208,4275.24242381,12.3636363624,3916.69696931,0.0,3861.57575719,201.939393919,4283.48484806,201.939393919,4502.93939349,3099.15151484,4196.93939352,3037.33333303,4330.87878745,1685.57575741,4973.27272678,2860.12121184,4193.33333291,3985.21212081,4421.5454541,8.2424242416,4204.66666625,0.0,4834.69696921,12.3636363624,4444.72727228,3869.81818143,42.0,42.0,?
2017-06-01 17:49:17.433404,4540.54545409,4.1212121208,4274.7272723,12.3636363624,3917.21212082,0.0,3858.4848481,201.939393919,4282.96969654,201.939393919,4508.09090864,3099.15151484,4203.63636322,3037.33333303,4334.99999957,1685.57575741,4960.90909041,2864.24242396,4194.87878746,3985.21212081,4424.63636319,8.2424242416,4206.72727231,0.0,4839.84848436,12.3636363624,4444.21212077,3869.81818143,42.0,42.0,?
2017-06-01 17:49:17.440252,4541.06060561,4.1212121208,4272.66666624,12.3636363624,3917.72727234,0.0,3848.69696931,201.939393919,4280.90909048,201.939393919,4502.42424197,3099.15151484,4196.93939352,3037.33333303,4326.75757532,1685.57575741,4966.57575708,2864.24242396,4185.60606019,3972.84848445,4424.12121168,8.2424242416,4206.72727231,0.0,4841.90909042,12.3636363624,4434.9393935,3869.81818143,42.0,42.0,?
2017-06-01 17:49:17.448704,4540.54545409,4.1212121208,4272.15151472,12.3636363624,3916.18181779,0.0,3850.75757537,201.939393919,4281.93939351,201.939393919,4500.36363591,3099.15151484,4191.27272685,3037.33333303,4321.60606017,1685.57575741,4967.60606011,2864.24242396,4185.09090867,3972.84848445,4424.12121168,0.0,4206.72727231,0.0,4837.7878783,12.3636363624,4433.39393895,3869.81818143,42.0,42.0,?
2017-06-01 17:49:17.456262,4544.1515147,4.1212121208,4274.7272723,12.3636363624,3917.72727234,0.0,3855.90909052,201.939393919,4283.48484806,201.939393919,4508.60606016,3099.15151484,4197.45454503,3037.33333303,4325.72727229,1685.57575741,4963.48484799,2864.24242396,4191.78787837,3972.84848445,4431.84848441,0.0,4207.75757534,0.0,4842.93939346,12.3636363624,4441.63636319,3869.81818143,42.0,42.0,?
2017-06-01 17:49:17.463896,4543.63636318,4.1212121208,4274.21212078,12.3636363624,3920.30302991,0.0,3850.24242386,201.939393919,4283.99999957,201.939393919,4509.63636319,3099.15151484,4206.21212079,3037.33333303,4328.30302987,1685.57575741,4972.24242375,2864.24242396,4188.69696928,3972.84848445,4422.57575713,0.0,4205.69696928,0.0,4835.72727224,8.2424242416,4440.60606016,3869.81818143,42.0,42.0,?
2017-06-01 17:49:17.472750,4542.60606015,4.1212121208,4273.18181775,12.3636363624,3916.69696931,0.0,3854.87878749,201.939393919,4287.09090866,201.939393919,4503.96969652,3099.15151484,4208.27272685,3037.33333303,4332.42424199,1685.57575741,4980.48484799,2864.24242396,4189.72727231,3985.21212081,4428.75757531,0.0,4208.78787837,0.0,4842.42424194,8.2424242416,4435.45454501,3869.81818143,42.0,42.0,?
2017-06-01 17:49:17.479693,4543.12121167,4.1212121208,4274.7272723,12.3636363624,3914.12121173,0.0,3864.66666628,201.939393919,4289.15151472,201.939393919,4506.54545409,3099.15151484,4204.15151473,3037.33333303,4339.6363632,1685.57575741,4973.27272678,2864.24242396,4201.06060564,3985.21212081,4428.75757531,0.0,4207.75757534,0.0,4841.90909042,8.2424242416,4437.51515107,3869.81818143,42.0,42.0,?
2017-06-01 17:49:17.487484,4541.57575712,4.1212121208,4275.75757533,12.3636363624,3917.72727234,0.0,3859.51515113,201.939393919,4287.60606018,201.939393919,4506.54545409,3099.15151484,4202.09090867,3037.33333303,4337.06060563,1685.57575741,4965.03030253,2864.24242396,4195.90909049,3985.21212081,4421.5454541,0.0,4202.60606019,0.0,4832.63636315,8.2424242416,4438.5454541,3869.81818143,42.0,42.0,?
2017-06-01 17:49:17.495606,4545.18181773,4.1212121208,4275.75757533,12.3636363624,3916.69696931,0.0,3853.33333295,201.939393919,4282.96969654,201.939393919,4502.42424197,3099.15151484,4203.1212117,3037.33333303,4331.39393896,1685.57575741,4970.18181768,2864.24242396,4186.63636322,3985.21212081,4431.33333289,0.0,4205.69696928,0.0,4843.45454497,8.2424242416,4438.03030259,3869.81818143,42.0,42.0,?
2017-06-01 17:49:17.503441,4543.63636318,4.1212121208,4274.21212078,12.3636363624,3910.51515112,0.0,3857.96969658,201.939393919,4282.96969654,201.939393919,4503.96969652,3099.15151484,4205.69696928,3037.33333303,4334.99999957,1685.57575741,4978.93939344,2864.24242396,4196.93939352,3985.21212081,4424.12121168,0.0,4209.30302988,0.0,4838.30302982,8.2424242416,4442.66666622,3869.81818143,42.0,42.0,?
2017-06-01 17:49:17.512058,4540.03030258,4.1212121208,4275.24242381,12.3636363624,3912.57575718,0.0,3864.15151477,201.939393919,4288.12121169,201.939393919,4506.03030258,3099.15151484,4208.27272685,3037.33333303,4340.66666623,1685.57575741,4979.96969647,2864.24242396,4205.69696928,3985.21212081,4424.63636319,0.0,4207.75757534,0.0,4837.27272679,8.2424242416,4445.75757531,3869.81818143,42.0,42.0,?
2017-06-01 17:49:17.521741,4541.57575712,4.1212121208,4275.24242381,12.3636363624,3917.72727234,0.0,3862.0909087,201.939393919,4288.63636321,201.939393919,4506.03030258,3099.15151484,4208.78787837,3037.33333303,4336.0303026,1685.57575741,4975.33333284,2864.24242396,4198.48484806,3985.21212081,4426.69696925,0.0,4206.72727231,0.0,4840.87878739,8.2424242416,4441.12121168,3869.81818143,42.0,42.0,?
2017-06-01 17:49:17.527501,4540.03030258,4.1212121208,4273.69696927,12.3636363624,3917.21212082,0.0,3857.45454507,201.939393919,4285.54545412,201.939393919,4506.03030258,3099.15151484,4208.78787837,3037.33333303,4328.30302987,1685.57575741,4969.15151465,2864.24242396,4192.30302988,3985.21212081,4422.06060562,0.0,4208.27272685,0.0,4832.63636315,8.2424242416,4438.5454541,3869.81818143,42.0,42.0,?
2017-06-01 17:49:17.533744,4542.09090864,4.1212121208,4275.75757533,12.3636363624,3918.75757537,0.0,3855.90909052,201.939393919,4284.51515109,201.939393919,4509.12121167,3099.15151484,4205.69696928,3037.33333303,4327.27272684,1685.57575741,4965.54545405,2864.24242396,4192.30302988,3985.21212081,4431.33333289,0.0,4208.78787837,0.0,4841.90909042,8.2424242416,4440.09090865,3869.81818143,42.0,42.0,?
2017-06-01 17:49:17.543611,4542.09090864,4.1212121208,4275.24242381,12.3636363624,3919.7878784,0.0,3855.90909052,201.939393919,4285.54545412,201.939393919,4510.1515147,3099.15151484,4200.03030261,3037.33333303,4328.30302987,1685.57575741,4966.57575708,2864.24242396,4187.15151473,3985.21212081,4425.15151471,0.0,4204.15151473,0.0,4840.87878739,8.2424242416,4436.48484804,3869.81818143,42.0,42.0,?
2017-06-01 17:49:17.551902,4543.63636318,4.1212121208,4272.66666624,12.3636363624,3916.18181779,0.0,3851.7878784,201.939393919,4285.54545412,201.939393919,4506.03030258,3099.15151484,4192.8181814,3037.33333303,4324.18181775,1685.57575741,4964.51515102,2864.24242396,4181.99999958,3985.21212081,4425.15151471,0.0,4205.69696928,0.0,4840.36363588,8.2424242416,4430.81818138,3869.81818143,42.0,42.0,?
2017-06-01 17:49:17.558235,4545.18181773,4.1212121208,4274.21212078,12.3636363624,3916.18181779,0.0,3844.57575719,201.939393919,4282.45454503,201.939393919,4503.454545,3099.15151484,4188.18181776,3037.33333303,4319.0303026,1685.57575741,4959.87878738,2864.24242396,4180.45454504,3985.21212081,4429.78787834,0.0,4207.75757534,0.0,4842.93939346,8.2424242416,4425.15151471,3869.81818143,42.0,42.0,?
2017-06-01 17:49:17.565832,4541.06060561,4.1212121208,4273.69696927,12.3636363624,3917.72727234,0.0,3847.15151477,201.939393919,4280.90909048,201.939393919,4504.99999955,3099.15151484,4193.33333291,3037.33333303,4325.21212078,1685.57575741,4970.6969692,2864.24242396,4185.60606019,3985.21212081,4426.18181774,0.0,4204.66666625,0.0,4835.72727224,8.2424242416,4425.66666622,3869.81818143,42.0,42.0,?
2017-06-01 17:49:17.573581,4542.60606015,4.1212121208,4273.69696927,12.3636363624,3915.15151476,0.0,3850.75757537,201.939393919,4284.51515109,201.939393919,4509.63636319,3099.15151484,4203.1212117,3037.33333303,4336.0303026,1685.57575741,4982.03030253,2864.24242396,4200.03030261,3985.21212081,4433.39393895,0.0,4208.27272685,0.0,4845.51515103,8.2424242416,4433.90909047,3869.81818143,42.0,42.0,?
2017-06-01 17:49:17.583274,4542.60606015,4.1212121208,4274.7272723,12.3636363624,3915.66666628,0.0,3850.24242386,201.939393919,4287.09090866,201.939393919,4510.1515147,3099.15151484,4204.15151473,3037.33333303,4336.0303026,1685.57575741,4974.81818132,2864.24242396,4202.60606019,3985.21212081,4425.15151471,0.0,4207.75757534,0.0,4839.84848436,8.2424242416,4432.36363592,3869.81818143,42.0,42.0,?
