Timestamp,F3 Value,F3 Quality,FC5 Value,FC5 Quality,F7 Value,F7 Quality,T7 Value,T7 Quality,P7 Value,P7 Quality,O1 Value,O1 Quality,O2 Value,O2 Quality,P8 Value,P8 Quality,T8 Value,T8 Quality,F8 Value,F8 Quality,AF4 Value,AF4 Quality,FC6 Value,FC6 Quality,F4 Value,F4 Quality,AF3 Value,AF3 Quality,X Value,Y Value,Z Value
2017-06-01 17:47:04.689822,4563.21212076,0,4311.30302987,0,3928.03030264,0,3844.06060568,0,4208.78787837,0,4511.18181773,0,4117.60606019,0,4275.24242381,0,4855.81818133,0,3807.4848481,0,4433.90909047,0,4204.15151473,0,4838.30302982,0,4304.09090866,0,42.0,42.0,?
2017-06-01 17:47:04.693804,4541.57575712,0,4326.75757532,0,3915.66666628,0,3703.42424205,0,4273.18181775,0,4507.06060561,0,4192.8181814,0,4328.81818139,0,4762.06060558,0,4138.72727231,0,4426.18181774,0,4197.96969655,0,4840.36363588,0,4520.96969652,0,42.0,42.0,?
2017-06-01 17:47:04.696999,4543.12121167,0,4325.21212078,0,3915.15151476,0,3703.42424205,0,4274.7272723,0,4511.18181773,0,4170.15151473,0,4323.15151472,0,4752.78787831,0,4137.69696928,0,4425.66666622,0,4201.06060564,0,4837.7878783,0,4527.1515147,0,42.0,42.0,?
2017-06-01 17:47:04.699807,4542.60606015,0,4324.18181775,0,3912.06060567,0,3708.06060569,0,4279.87878745,0,4514.78787834,0,4155.2121208,0,4320.57575714,0,4749.69696922,0,4138.72727231,0,4427.72727228,0,4203.1212117,0,4840.87878739,0,4530.24242379,0,42.0,42.0,?
2017-06-01 17:47:04.702982,4542.09090864,0,4324.69696926,0,3913.60606021,0,3712.18181781,0,4282.45454503,0,4518.39393894,0,4157.78787837,0,4319.54545411,0,4753.81818134,0,4138.72727231,0,4424.12121168,0,4196.93939352,0,4836.75757527,0,4524.57575712,0,42.0,42.0,?
2017-06-01 17:47:04.706257,4539.51515106,0,4323.66666623,0,3914.63636324,0,3712.18181781,0,4283.48484806,0,4517.36363591,0,4169.1212117,0,4320.06060563,0,4762.06060558,0,4147.99999959,0,4428.2424238,0,4196.424242,0,4839.33333285,0,4523.03030258,0,42.0,42.0,?
2017-06-01 17:47:04.712312,4541.57575712,0,4324.69696926,0,3914.12121173,0,3709.09090872,0,4277.81818139,0,4509.12121167,0,4176.84848443,0,4320.57575714,0,4763.60606013,0,4149.03030262,0,4425.66666622,0,4200.54545413,0,4837.27272679,0,4524.06060561,0,42.0,42.0,?
2017-06-01 17:47:04.714677,4542.09090864,0,4326.24242381,0,3913.60606021,0,3707.54545417,0,4270.60606018,0,4504.99999955,0,4191.78787837,0,4327.78787836,0,4759.48484801,0,4140.27272686,0,4426.18181774,0,4201.06060564,0,4836.24242376,0,4518.39393894,0,42.0,42.0,?
2017-06-01 17:47:04.726685,4541.57575712,0,4326.75757532,0,3913.0909087,0,3708.5757572,0,4271.12121169,0,4508.60606016,0,4209.30302988,0,4334.99999957,0,4756.90909043,0,4137.18181777,0,4429.78787834,0,4198.99999958,0,4840.87878739,0,4517.36363591,0,42.0,42.0,?
2017-06-01 17:47:04.733657,4541.06060561,0,4326.75757532,0,3912.57575718,0,3707.03030266,0,4270.60606018,0,4510.1515147,0,4209.8181814,0,4335.51515108,0,4762.06060558,0,4142.33333292,0,4425.15151471,0,4196.93939352,0,4837.27272679,0,4526.12121167,0,42.0,42.0,?
2017-06-01 17:47:04.737841,4539.51515106,8.2424242416,4326.75757532,0,3911.54545415,0,3709.60606024,0,4268.0303026,0,4507.57575713,0,4200.03030261,0,4334.99999957,0,4774.93939346,0,4159.84848443,0,4427.72727228,0,4201.06060564,0,4840.87878739,0,4532.81818136,0,42.0,42.0,?
2017-06-01 17:47:04.740938,4542.60606015,8.2424242416,4328.30302987,12.3636363624,3912.57575718,0,3711.15151478,0,4268.54545412,0,4508.09090864,0,4188.18181776,0,4330.36363593,0,4775.45454498,0,4164.48484807,0,4425.15151471,0,4202.60606019,0,4841.90909042,0,4528.69696924,0,42.0,42.0,?
2017-06-01 17:47:04.744415,4542.09090864,8.2424242416,4328.30302987,12.3636363624,3914.12121173,0,3708.06060569,0,4266.99999957,0,4509.63636319,0,4178.90909049,0,4324.18181775,0,4765.15151467,0,4150.57575716,0,4424.63636319,0,4197.45454503,0,4837.27272679,0,4518.90909046,3783.27272689,42.0,42.0,?
2017-06-01 17:47:04.748381,4539.51515106,8.2424242416,4326.75757532,12.3636363624,3914.12121173,8.2424242416,3711.15151478,0,4265.45454503,0,4511.69696925,0,4177.36363595,0,4323.15151472,0,4765.66666619,0,4149.03030262,0,4430.30302986,0,4196.424242,0,4837.7878783,0,4516.8484844,3783.27272689,42.0,42.0,?
2017-06-01 17:47:04.752728,4543.12121167,8.2424242416,4327.78787836,12.3636363624,3914.63636324,8.2424242416,3715.2727269,135.999999986,4264.424242,0,4513.24242379,0,4170.15151473,0,4321.60606017,0,4766.18181771,0,4152.12121171,0,4426.69696925,0,4198.99999958,0,4835.72727224,0,4519.93939349,3783.27272689,42.0,42.0,?
2017-06-01 17:47:04.756096,4542.09090864,8.2424242416,4326.75757532,12.3636363624,3912.57575718,8.2424242416,3713.72727236,135.999999986,4264.93939351,239.030303006,4511.69696925,0,4164.48484807,0,4316.96969654,0,4757.93939346,0,4143.87878746,0,4430.81818138,0,4202.09090867,0,4841.39393891,0,4518.90909046,3783.27272689,42.0,42.0,?
2017-06-01 17:47:04.759266,4541.06060561,8.2424242416,4326.24242381,12.3636363624,3912.06060567,8.2424242416,3712.18181781,135.999999986,4267.51515109,239.030303006,4509.63636319,3684.363636,4172.21212079,0,4317.48484805,0,4761.03030255,0,4142.33333292,0,4429.27272683,0,4198.99999958,0,4840.36363588,0,4515.30302985,3783.27272689,42.0,42.0,?
2017-06-01 17:47:04.763816,4543.63636318,8.2424242416,4327.27272684,12.3636363624,3913.60606021,8.2424242416,3715.78787842,135.999999986,4270.09090866,239.030303006,4506.54545409,3684.363636,4192.8181814,3033.21212091,4324.18181775,0,4777.51515104,0,4159.33333292,0,4424.63636319,0,4198.48484806,0,4835.21212073,0,4512.21212076,3783.27272689,42.0,42.0,?
2017-06-01 17:47:04.767471,4542.09090864,8.2424242416,4326.75757532,12.3636363624,3913.60606021,8.2424242416,3719.39393902,135.999999986,4267.51515109,239.030303006,4506.03030258,3684.363636,4205.18181776,3033.21212091,4331.39393896,1677.33333317,4784.21212073,0,4159.33333292,0,4429.78787834,0,4202.60606019,0,4839.84848436,0,4515.30302985,3783.27272689,42.0,42.0,?
2017-06-01 17:47:04.773735,4541.57575712,8.2424242416,4326.24242381,12.3636363624,3913.0909087,8.2424242416,3717.33333296,135.999999986,4260.81818139,239.030303006,4507.06060561,3684.363636,4198.48484806,3033.21212091,4329.84848442,1677.33333317,4775.45454498,2921.93939365,4141.8181814,0,4425.66666622,0,4201.57575716,0,4835.72727224,0,4519.93939349,3783.27272689,42.0,42.0,?
2017-06-01 17:47:04.783616,4542.09090864,8.2424242416,4325.21212078,12.3636363624,3911.54545415,8.2424242416,3714.75757539,135.999999986,4263.90909048,239.030303006,4507.57575713,3684.363636,4193.84848443,3033.21212091,4324.18181775,1677.33333317,4772.36363589,2921.93939365,4145.93939352,3997.57575718,4426.69696925,0,4200.54545413,0,4838.30302982,0,4514.27272682,3783.27272689,42.0,42.0,?
2017-06-01 17:47:04.791266,4543.63636318,8.2424242416,4324.69696926,12.3636363624,3912.06060567,8.2424242416,3713.21212084,135.999999986,4269.57575715,239.030303006,4514.78787834,3684.363636,4197.96969655,3033.21212091,4324.18181775,1677.33333317,4778.03030255,2921.93939365,4160.36363595,3997.57575718,4427.72727228,0.0,4200.54545413,0,4839.33333285,0,4502.93939349,3783.27272689,42.0,42.0,?
2017-06-01 17:47:04.797733,4542.09090864,8.2424242416,4326.24242381,12.3636363624,3914.63636324,8.2424242416,3713.72727236,135.999999986,4268.54545412,239.030303006,4518.39393894,3684.363636,4194.36363594,3033.21212091,4325.72727229,1677.33333317,4776.99999952,2921.93939365,4153.66666625,3997.57575718,4425.15151471,0.0,4197.96969655,12.3636363624,4834.69696921,0,4497.78787834,3783.27272689,42.0,42.0,?
2017-06-01 17:47:04.806227,4538.99999955,8.2424242416,4326.75757532,12.3636363624,3914.12121173,8.2424242416,3715.78787842,135.999999986,4266.48484806,239.030303006,4513.75757531,3684.363636,4185.60606019,3033.21212091,4327.27272684,1677.33333317,4768.24242377,2921.93939365,4137.69696928,3997.57575718,4427.72727228,0.0,4198.48484806,12.3636363624,4843.96969649,8.2424242416,4502.42424197,3783.27272689,42.0,42.0,?
2017-06-01 17:47:04.814221,4543.63636318,8.2424242416,4326.24242381,12.3636363624,3913.60606021,8.2424242416,3714.75757539,135.999999986,4265.45454503,239.030303006,4512.72727228,3684.363636,4177.87878746,3033.21212091,4324.18181775,1677.33333317,4768.75757528,2921.93939365,4136.15151474,3989.33333293,4424.12121168,0.0,4198.99999958,12.3636363624,4840.87878739,8.2424242416,4506.54545409,3783.27272689,42.0,42.0,?
2017-06-01 17:47:04.825129,4544.1515147,8.2424242416,4327.27272684,12.3636363624,3914.12121173,8.2424242416,3715.78787842,135.999999986,4262.36363594,239.030303006,4510.1515147,3684.363636,4167.06060564,3033.21212091,4313.87878745,1677.33333317,4778.03030255,2921.93939365,4147.48484807,3989.33333293,4428.75757531,12.3636363624,4198.99999958,12.3636363624,4835.72727224,8.2424242416,4503.454545,3783.27272689,42.0,42.0,?
2017-06-01 17:47:04.832843,4541.06060561,8.2424242416,4328.30302987,12.3636363624,3912.57575718,8.2424242416,3721.45454508,135.999999986,4259.78787836,239.030303006,4502.93939349,3684.363636,4162.42424201,3033.21212091,4312.3333329,1677.33333317,4776.99999952,2921.93939365,4159.84848443,3989.33333293,4431.33333289,12.3636363624,4198.99999958,4.1212121208,4838.81818133,8.2424242416,4506.54545409,3783.27272689,42.0,42.0,?
2017-06-01 17:47:04.846124,4543.63636318,8.2424242416,4328.81818139,12.3636363624,3912.06060567,8.2424242416,3725.06060569,135.999999986,4259.78787836,239.030303006,4500.87878743,3684.363636,4170.15151473,3033.21212091,4315.42424199,1677.33333317,4768.24242377,2921.93939365,4158.8181814,3989.33333293,4424.63636319,12.3636363624,4196.424242,4.1212121208,4837.27272679,8.2424242416,4517.36363591,3783.27272689,42.0,42.0,?
2017-06-01 17:47:04.855402,4543.63636318,8.2424242416,4327.27272684,12.3636363624,3913.0909087,8.2424242416,3728.15151478,135.999999986,4262.87878745,239.030303006,4501.90909046,3684.363636,4177.36363595,3033.21212091,4317.48484805,1677.33333317,4773.39393892,2921.93939365,4150.06060565,3989.33333293,4427.72727228,12.3636363624,4198.48484806,4.1212121208,4840.36363588,8.2424242416,4522.51515106,3783.27272689,42.0,42.0,?
2017-06-01 17:47:04.862571,4543.12121167,8.2424242416,4327.27272684,12.3636363624,3915.15151476,8.2424242416,3731.75757538,135.999999986,4269.57575715,239.030303006,4506.54545409,3684.363636,4184.06060564,3033.21212091,4323.15151472,1677.33333317,4780.09090861,2921.93939365,4145.93939352,3989.33333293,4425.66666622,12.3636363624,4200.54545413,4.1212121208,4838.30302982,8.2424242416,4517.87878743,3783.27272689,42.0,42.0,?
2017-06-01 17:47:04.865803,4541.06060561,8.2424242416,4326.24242381,12.3636363624,3913.60606021,8.2424242416,3735.36363599,135.999999986,4275.75757533,239.030303006,4516.33333288,3684.363636,4202.09090867,3033.21212091,4329.84848442,1677.33333317,4776.99999952,2921.93939365,4145.93939352,3989.33333293,4426.18181774,12.3636363624,4199.5151511,4.1212121208,4838.30302982,8.2424242416,4513.75757531,3783.27272689,42.0,42.0,?
2017-06-01 17:47:04.870402,4541.06060561,8.2424242416,4324.69696926,12.3636363624,3911.54545415,8.2424242416,3736.90909054,135.999999986,4278.33333291,239.030303006,4520.96969652,3684.363636,4216.51515109,3033.21212091,4333.45454502,1677.33333317,4786.78787831,2921.93939365,4156.24242383,3989.33333293,4429.27272683,12.3636363624,4198.99999958,4.1212121208,4841.90909042,8.2424242416,4515.30302985,3783.27272689,42.0,42.0,?
2017-06-01 17:47:04.876720,4544.1515147,8.2424242416,4326.24242381,12.3636363624,3913.0909087,8.2424242416,3735.87878751,135.999999986,4277.81818139,239.030303006,4519.42424197,3684.363636,4207.75757534,3033.21212091,4332.42424199,1677.33333317,4801.21212073,2921.93939365,4167.57575716,3989.33333293,4424.63636319,12.3636363624,4199.5151511,4.1212121208,4834.1818177,8.2424242416,4514.27272682,3783.27272689,42.0,42.0,?
2017-06-01 17:47:04.884320,4540.54545409,8.2424242416,4326.24242381,12.3636363624,3913.0909087,8.2424242416,3734.33333296,135.999999986,4275.24242381,239.030303006,4513.24242379,3684.363636,4189.72727231,3033.21212091,4327.78787836,1677.33333317,4791.42424195,2921.93939365,4165.5151511,3989.33333293,4427.21212077,12.3636363624,4199.5151511,4.1212121208,4838.81818133,8.2424242416,4506.03030258,3783.27272689,42.0,42.0,?
2017-06-01 17:47:04.891855,4539.51515106,8.2424242416,4325.72727229,12.3636363624,3913.0909087,8.2424242416,3735.87878751,135.999999986,4273.69696927,239.030303006,4506.03030258,3684.363636,4180.45454504,3033.21212091,4321.09090866,1677.33333317,4776.48484801,2921.93939365,4154.69696928,3989.33333293,4426.18181774,12.3636363624,4197.45454503,4.1212121208,4841.90909042,8.2424242416,4497.78787834,3783.27272689,42.0,42.0,?
2017-06-01 17:47:04.900101,4541.06060561,8.2424242416,4326.24242381,12.3636363624,3913.0909087,8.2424242416,3738.45454508,135.999999986,4275.24242381,239.030303006,4503.96969652,3684.363636,4186.63636322,3033.21212091,4323.15151472,1677.33333317,4779.06060558,2921.93939365,4145.93939352,3989.33333293,4426.18181774,12.3636363624,4198.48484806,4.1212121208,4838.81818133,8.2424242416,4506.03030258,3783.27272689,42.0,42.0,?
2017-06-01 17:47:04.907644,4540.54545409,8.2424242416,4327.27272684,12.3636363624,3911.03030264,8.2424242416,3740.51515114,135.999999986,4274.7272723,239.030303006,4503.96969652,3684.363636,4195.39393897,3033.21212091,4328.30302987,1677.33333317,4784.72727225,2921.93939365,4150.57575716,3989.33333293,4428.75757531,12.3636363624,4200.54545413,4.1212121208,4837.7878783,8.2424242416,4519.93939349,3783.27272689,42.0,42.0,?
2017-06-01 17:47:04.915166,4541.06060561,8.2424242416,4327.78787836,12.3636363624,3914.63636324,8.2424242416,3742.5757572,135.999999986,4268.54545412,239.030303006,4500.36363591,3684.363636,4190.75757534,3033.21212091,4327.27272684,1677.33333317,4793.99999952,2921.93939365,4166.03030261,3989.33333293,4423.09090865,12.3636363624,4198.48484806,4.1212121208,4834.69696921,8.2424242416,4518.90909046,3783.27272689,42.0,42.0,?
2017-06-01 17:47:04.923932,4540.03030258,8.2424242416,4326.24242381,12.3636363624,3916.18181779,8.2424242416,3742.06060569,135.999999986,4268.0303026,239.030303006,4499.33333288,3684.363636,4188.69696928,3033.21212091,4330.36363593,1677.33333317,4808.42424194,2921.93939365,4174.78787837,3989.33333293,4425.66666622,12.3636363624,4198.99999958,4.1212121208,4840.87878739,8.2424242416,4517.87878743,3783.27272689,42.0,42.0,?
2017-06-01 17:47:04.931364,4540.54545409,8.2424242416,4326.24242381,12.3636363624,3912.57575718,8.2424242416,3737.42424205,135.999999986,4271.63636321,239.030303006,4504.48484803,3684.363636,4197.96969655,3033.21212091,4334.48484805,1677.33333317,4806.8787874,2921.93939365,4169.63636322,3989.33333293,4423.60606016,12.3636363624,4200.54545413,4.1212121208,4838.81818133,8.2424242416,4524.06060561,3783.27272689,42.0,42.0,?
2017-06-01 17:47:04.939449,4540.54545409,8.2424242416,4324.69696926,12.3636363624,3911.03030264,8.2424242416,3736.90909054,135.999999986,4274.7272723,239.030303006,4509.63636319,3684.363636,4209.30302988,3033.21212091,4336.54545411,1677.33333317,4804.30302982,2921.93939365,4167.06060564,3989.33333293,4421.5454541,12.3636363624,4202.09090867,4.1212121208,4833.15151467,8.2424242416,4527.1515147,3783.27272689,42.0,42.0,?
2017-06-01 17:47:04.948572,4541.06060561,8.2424242416,4325.72727229,12.3636363624,3913.0909087,8.2424242416,3741.54545417,135.999999986,4280.90909048,239.030303006,4515.81818137,3684.363636,4220.63636321,3033.21212091,4347.36363593,1677.33333317,4812.54545406,2921.93939365,4162.93939352,3989.33333293,4428.75757531,12.3636363624,4202.09090867,4.1212121208,4840.87878739,8.2424242416,4524.06060561,3783.27272689,42.0,42.0,?
2017-06-01 17:47:04.957492,4546.21212076,8.2424242416,4328.30302987,12.3636363624,3914.63636324,8.2424242416,3743.09090872,135.999999986,4283.99999957,239.030303006,4521.48484803,3684.363636,4232.99999958,3033.21212091,4359.21212078,1677.33333317,4810.484848,2921.93939365,4152.63636322,3989.33333293,4426.69696925,12.3636363624,4199.5151511,4.1212121208,4837.7878783,8.2424242416,4521.48484803,3783.27272689,42.0,42.0,?
2017-06-01 17:47:04.963654,4544.66666621,8.2424242416,4325.21212078,12.3636363624,3912.06060567,8.2424242416,3743.09090872,135.999999986,4287.60606018,239.030303006,4517.36363591,3684.363636,4236.60606018,3033.21212091,4359.72727229,1677.33333317,4809.45454497,2921.93939365,4162.42424201,3989.33333293,4427.21212077,12.3636363624,4201.06060564,4.1212121208,4837.7878783,8.2424242416,4529.72727227,3783.27272689,42.0,42.0,?
2017-06-01 17:47:04.975500,4538.99999955,8.2424242416,4322.6363632,12.3636363624,3912.57575718,8.2424242416,3746.18181781,135.999999986,4287.60606018,239.030303006,4512.21212076,3684.363636,4225.78787837,3033.21212091,4354.57575714,1677.33333317,4823.36363588,2921.93939365,4181.99999958,3989.33333293,4427.21212077,12.3636363624,4201.06060564,4.1212121208,4840.36363588,8.2424242416,4546.72727227,3783.27272689,42.0,42.0,?
2017-06-01 17:47:04.979679,4538.48484803,8.2424242416,4325.72727229,12.3636363624,3914.12121173,8.2424242416,3748.24242387,135.999999986,4282.96969654,239.030303006,4510.1515147,3684.363636,4210.33333291,3033.21212091,4355.09090866,1677.33333317,4827.99999952,2921.93939365,4187.15151473,3989.33333293,4425.66666622,12.3636363624,4200.03030261,4.1212121208,4836.75757527,8.2424242416,4555.99999954,3783.27272689,42.0,42.0,?
2017-06-01 17:47:04.985789,4540.54545409,8.2424242416,4328.81818139,12.3636363624,3911.03030264,8.2424242416,3753.39393902,135.999999986,4279.36363594,239.030303006,4499.33333288,3684.363636,4207.24242382,3033.21212091,4355.09090866,1677.33333317,4819.24242376,2921.93939365,4185.60606019,3989.33333293,4428.2424238,12.3636363624,4202.09090867,4.1212121208,4840.36363588,8.2424242416,4558.0606056,3783.27272689,42.0,42.0,?
2017-06-01 17:47:04.993513,4541.06060561,8.2424242416,4328.30302987,12.3636363624,3911.54545415,8.2424242416,3756.99999962,135.999999986,4275.24242381,239.030303006,4491.09090864,3684.363636,4207.24242382,3033.21212091,4347.87878744,1677.33333317,4810.99999952,2921.93939365,4180.96969655,3989.33333293,4423.09090865,12.3636363624,4200.54545413,4.1212121208,4838.30302982,8.2424242416,4555.99999954,3783.27272689,42.0,42.0,?
2017-06-01 17:47:05.001872,4537.96969652,8.2424242416,4326.75757532,12.3636363624,3912.57575718,8.2424242416,3752.8787875,135.999999986,4271.63636321,239.030303006,4494.69696925,3684.363636,4192.8181814,3033.21212091,4340.15151472,1677.33333317,4808.42424194,2921.93939365,4173.75757534,3989.33333293,4426.69696925,12.3636363624,4201.06060564,4.1212121208,4837.7878783,8.2424242416,4547.24242379,3783.27272689,42.0,42.0,?
2017-06-01 17:47:05.011714,4538.99999955,8.2424242416,4327.27272684,12.3636363624,3913.0909087,8.2424242416,3748.75757538,135.999999986,4273.69696927,239.030303006,4502.42424197,3684.363636,4182.5151511,3033.21212091,4333.96969654,1677.33333317,4805.84848437,2921.93939365,4164.48484807,3989.33333293,4427.72727228,12.3636363624,4201.57575716,4.1212121208,4838.81818133,8.2424242416,4540.03030258,3783.27272689,42.0,42.0,?
2017-06-01 17:47:05.017395,4542.09090864,8.2424242416,4327.27272684,12.3636363624,3915.15151476,8.2424242416,3747.72727235,135.999999986,4273.18181775,239.030303006,4508.09090864,3684.363636,4191.78787837,3033.21212091,4329.84848442,1677.33333317,4798.63636316,2921.93939365,4152.63636322,3989.33333293,4422.57575713,12.3636363624,4199.5151511,4.1212121208,4835.72727224,8.2424242416,4535.90909046,3783.27272689,42.0,42.0,?
2017-06-01 17:47:05.024731,4540.03030258,8.2424242416,4325.72727229,12.3636363624,3914.63636324,8.2424242416,3746.69696932,135.999999986,4272.66666624,239.030303006,4510.66666622,3684.363636,4209.30302988,3033.21212091,4336.54545411,1677.33333317,4805.33333285,2921.93939365,4156.24242383,3989.33333293,4428.2424238,12.3636363624,4200.54545413,4.1212121208,4840.36363588,8.2424242416,4533.8484844,3783.27272689,42.0,42.0,?
2017-06-01 17:47:05.032599,4541.57575712,8.2424242416,4327.78787836,12.3636363624,3915.66666628,8.2424242416,3747.21212084,135.999999986,4283.99999957,239.030303006,4514.27272682,3684.363636,4224.75757534,3033.21212091,4351.48484805,1677.33333317,4825.42424194,2921.93939365,4167.57575716,3989.33333293,4426.69696925,12.3636363624,4201.06060564,4.1212121208,4835.72727224,8.2424242416,4535.90909046,3783.27272689,42.0,42.0,?
2017-06-01 17:47:05.045743,4542.60606015,8.2424242416,4326.24242381,12.3636363624,3914.63636324,8.2424242416,3754.42424205,135.999999986,4291.21212078,239.030303006,4515.30302985,3684.363636,4229.39393897,3033.21212091,4356.12121169,1677.33333317,4828.51515103,2921.93939365,4167.06060564,3989.33333293,4428.2424238,12.3636363624,4201.57575716,4.1212121208,4836.75757527,8.2424242416,4531.78787833,3783.27272689,42.0,42.0,?
2017-06-01 17:47:05.050724,4542.60606015,8.2424242416,4324.18181775,12.3636363624,3912.57575718,8.2424242416,3759.06060568,135.999999986,4285.0303026,239.030303006,4513.75757531,3684.363636,4215.48484806,3033.21212091,4345.30302987,1677.33333317,4815.12121164,2921.93939365,4162.42424201,3989.33333293,4430.30302986,12.3636363624,4203.1212117,4.1212121208,4841.90909042,8.2424242416,4525.60606015,3783.27272689,42.0,42.0,?
2017-06-01 17:47:05.059857,4544.1515147,8.2424242416,4328.81818139,12.3636363624,3914.63636324,8.2424242416,3756.99999962,135.999999986,4280.39393897,239.030303006,4510.1515147,3684.363636,4190.24242382,3033.21212091,4332.93939351,1677.33333317,4810.99999952,2921.93939365,4164.99999958,3989.33333293,4424.12121168,12.3636363624,4197.96969655,4.1212121208,4833.66666618,8.2424242416,4530.24242379,3783.27272689,42.0,42.0,?
2017-06-01 17:47:05.069758,4542.09090864,8.2424242416,4330.36363593,12.3636363624,3913.0909087,8.2424242416,3755.96969659,135.999999986,4278.84848442,239.030303006,4504.48484803,3684.363636,4169.63636322,3033.21212091,4329.3333329,1677.33333317,4815.63636315,2921.93939365,4165.5151511,3989.33333293,4427.21212077,12.3636363624,4195.90909049,4.1212121208,4838.81818133,8.2424242416,4536.42424197,3783.27272689,42.0,42.0,?
2017-06-01 17:47:05.076701,4543.63636318,8.2424242416,4327.27272684,12.3636363624,3912.57575718,8.2424242416,3751.33333296,135.999999986,4270.09090866,239.030303006,4498.81818137,3684.363636,4163.96969655,3033.21212091,4327.27272684,1677.33333317,4808.93939346,2921.93939365,4155.72727231,3989.33333293,4426.18181774,12.3636363624,4201.06060564,4.1212121208,4840.36363588,8.2424242416,4533.33333288,3783.27272689,42.0,42.0,?
2017-06-01 17:47:05.081858,4543.63636318,8.2424242416,4324.18181775,12.3636363624,3913.60606021,8.2424242416,3750.30302993,135.999999986,4262.36363594,239.030303006,4492.63636319,3684.363636,4172.21212079,3033.21212091,4321.60606017,1677.33333317,4802.75757528,2921.93939365,4154.18181777,3989.33333293,4425.66666622,12.3636363624,4203.63636322,4.1212121208,4837.27272679,8.2424242416,4531.78787833,3783.27272689,42.0,42.0,?
2017-06-01 17:47:05.088773,4540.03030258,8.2424242416,4325.72727229,12.3636363624,3913.60606021,8.2424242416,3759.06060568,135.999999986,4266.48484806,239.030303006,4492.63636319,3684.363636,4183.54545413,3033.21212091,4325.72727229,1677.33333317,4815.12121164,2921.93939365,4164.99999958,3989.33333293,4427.72727228,12.3636363624,4200.54545413,4.1212121208,4841.90909042,8.2424242416,4531.27272682,3783.27272689,42.0,42.0,?
2017-06-01 17:47:05.098011,4540.03030258,8.2424242416,4329.3333329,12.3636363624,3913.60606021,8.2424242416,3763.18181781,135.999999986,4272.15151472,239.030303006,4498.30302985,3684.363636,4194.36363594,3033.21212091,4337.06060563,1677.33333317,4824.39393891,2921.93939365,4169.63636322,3989.33333293,4423.09090865,12.3636363624,4198.99999958,4.1212121208,4838.81818133,8.2424242416,4525.09090864,3783.27272689,42.0,42.0,?
2017-06-01 17:47:05.102712,4539.51515106,8.2424242416,4328.30302987,12.3636363624,3912.57575718,8.2424242416,3759.06060568,135.999999986,4270.60606018,239.030303006,4500.36363591,3684.363636,4201.06060564,3033.21212091,4338.09090866,1677.33333317,4818.72727225,2921.93939365,4159.84848443,3989.33333293,4426.69696925,12.3636363624,4202.60606019,4.1212121208,4838.81818133,8.2424242416,4518.90909046,3783.27272689,42.0,42.0,?
2017-06-01 17:47:05.110990,4543.12121167,8.2424242416,4326.75757532,12.3636363624,3912.57575718,8.2424242416,3758.54545417,135.999999986,4268.0303026,239.030303006,4501.39393894,3684.363636,4197.45454503,3033.21212091,4333.45454502,1677.33333317,4810.99999952,2921.93939365,4150.57575716,3989.33333293,4424.63636319,12.3636363624,4200.54545413,4.1212121208,4837.27272679,8.2424242416,4516.33333288,3783.27272689,42.0,42.0,?
2017-06-01 17:47:05.118595,4542.60606015,8.2424242416,4326.24242381,12.3636363624,3913.60606021,8.2424242416,3763.18181781,135.999999986,4272.66666624,239.030303006,4507.06060561,3684.363636,4195.39393897,3033.21212091,4336.54545411,1677.33333317,4810.484848,2921.93939365,4156.24242383,3989.33333293,4423.09090865,12.3636363624,4197.96969655,4.1212121208,4836.75757527,8.2424242416,4522.51515106,3783.27272689,42.0,42.0,?
2017-06-01 17:47:05.127320,4537.454545,8.2424242416,4325.72727229,12.3636363624,3912.57575718,8.2424242416,3765.75757538,135.999999986,4280.39393897,239.030303006,4510.1515147,3684.363636,4203.1212117,3033.21212091,4343.75757532,1677.33333317,4817.1818177,2921.93939365,4163.96969655,3989.33333293,4426.69696925,12.3636363624,4200.54545413,4.1212121208,4839.84848436,8.2424242416,4529.72727227,3783.27272689,42.0,42.0,?
2017-06-01 17:47:05.134504,4542.09090864,8.2424242416,4327.27272684,12.3636363624,3911.54545415,8.2424242416,3763.69696932,135.999999986,4275.75757533,239.030303006,4509.12121167,3684.363636,4198.99999958,3033.21212091,4343.24242381,1677.33333317,4824.39393891,2921.93939365,4161.90909049,3989.33333293,4422.57575713,12.3636363624,4198.48484806,4.1212121208,4833.15151467,8.2424242416,4521.99999955,3783.27272689,42.0,42.0,?
2017-06-01 17:47:05.141826,4545.18181773,8.2424242416,4325.72727229,12.3636363624,3913.0909087,8.2424242416,3763.18181781,135.999999986,4269.57575715,239.030303006,4509.12121167,3684.363636,4182.5151511,3033.21212091,4338.09090866,1677.33333317,4828.51515103,2921.93939365,4162.42424201,3989.33333293,4428.75757531,12.3636363624,4198.99999958,4.1212121208,4839.33333285,8.2424242416,4513.24242379,3783.27272689,42.0,42.0,?
2017-06-01 17:47:05.150488,4544.1515147,8.2424242416,4326.24242381,12.3636363624,3915.15151476,8.2424242416,3764.21212084,135.999999986,4270.60606018,239.030303006,4509.12121167,3684.363636,4176.33333292,3033.21212091,4333.45454502,1677.33333317,4823.8787874,2921.93939365,4167.57575716,3989.33333293,4430.30302986,12.3636363624,4201.06060564,4.1212121208,4843.45454497,8.2424242416,4517.36363591,3783.27272689,42.0,42.0,?
2017-06-01 17:47:05.160616,4541.57575712,8.2424242416,4330.87878745,12.3636363624,3913.0909087,8.2424242416,3759.5757572,135.999999986,4270.09090866,239.030303006,4507.06060561,3684.363636,4184.57575716,3033.21212091,4329.3333329,1677.33333317,4812.03030255,2921.93939365,4158.8181814,3989.33333293,4424.12121168,12.3636363624,4195.90909049,4.1212121208,4835.72727224,8.2424242416,4520.454545,3783.27272689,42.0,42.0,?
2017-06-01 17:47:05.165699,4540.54545409,8.2424242416,4330.36363593,12.3636363624,3911.03030264,8.2424242416,3756.48484811,135.999999986,4267.51515109,239.030303006,4504.99999955,3684.363636,4196.93939352,3033.21212091,4329.84848442,1677.33333317,4807.90909043,2921.93939365,4146.45454504,3989.33333293,4427.21212077,12.3636363624,4195.90909049,4.1212121208,4839.84848436,8.2424242416,4515.81818137,3783.27272689,42.0,42.0,?
2017-06-01 17:47:05.174203,4544.1515147,8.2424242416,4326.75757532,12.3636363624,3914.12121173,8.2424242416,3758.03030265,135.999999986,4269.57575715,239.030303006,4507.57575713,3684.363636,4200.03030261,3033.21212091,4333.45454502,1677.33333317,4819.24242376,2921.93939365,4154.18181777,3989.33333293,4424.63636319,12.3636363624,4200.03030261,4.1212121208,4839.33333285,8.2424242416,4512.72727228,3783.27272689,42.0,42.0,?
2017-06-01 17:47:05.181639,4541.57575712,8.2424242416,4328.81818139,12.3636363624,3913.60606021,8.2424242416,3761.12121175,135.999999986,4274.7272723,239.030303006,4510.1515147,3684.363636,4204.66666625,3033.21212091,4338.09090866,1677.33333317,4835.21212073,2921.93939365,4172.21212079,3989.33333293,4426.18181774,12.3636363624,4201.06060564,4.1212121208,4838.81818133,8.2424242416,4517.36363591,3783.27272689,42.0,42.0,?
2017-06-01 17:47:05.191259,4538.99999955,8.2424242416,4331.39393896,12.3636363624,3912.57575718,8.2424242416,3762.66666629,135.999999986,4275.75757533,239.030303006,4508.09090864,3684.363636,4210.33333291,3033.21212091,4340.66666623,1677.33333317,4836.24242376,2921.93939365,4175.30302989,3989.33333293,4426.69696925,12.3636363624,4198.48484806,4.1212121208,4840.87878739,8.2424242416,4520.96969652,3783.27272689,42.0,42.0,?
2017-06-01 17:47:05.201158,4540.03030258,8.2424242416,4327.78787836,12.3636363624,3914.12121173,8.2424242416,3762.66666629,135.999999986,4274.21212078,239.030303006,4509.63636319,3684.363636,4206.72727231,3033.21212091,4338.60606017,1677.33333317,4821.81818134,2921.93939365,4159.33333292,3989.33333293,4421.5454541,12.3636363624,4199.5151511,4.1212121208,4837.7878783,8.2424242416,4518.90909046,3783.27272689,42.0,42.0,?
2017-06-01 17:47:05.206579,4539.51515106,8.2424242416,4324.69696926,12.3636363624,3913.60606021,8.2424242416,3761.63636326,135.999999986,4274.21212078,239.030303006,4513.24242379,3684.363636,4203.1212117,3033.21212091,4340.15151472,1677.33333317,4816.15151467,2921.93939365,4158.30302989,3989.33333293,4427.72727228,12.3636363624,4204.15151473,4.1212121208,4840.36363588,8.2424242416,4516.8484844,3783.27272689,42.0,42.0,?
2017-06-01 17:47:05.212791,4540.03030258,0.0,4325.21212078,12.3636363624,3915.15151476,8.2424242416,3763.18181781,135.999999986,4272.15151472,239.030303006,4510.66666622,3684.363636,4193.33333291,3033.21212091,4341.69696926,1677.33333317,4826.45454497,2921.93939365,4172.72727231,3989.33333293,4428.2424238,12.3636363624,4200.54545413,4.1212121208,4835.21212073,8.2424242416,4514.27272682,3783.27272689,42.0,42.0,?
2017-06-01 17:47:05.222283,4539.51515106,0.0,4324.69696926,4.1212121208,3914.12121173,8.2424242416,3764.21212084,135.999999986,4272.66666624,239.030303006,4504.99999955,3684.363636,4179.42424201,3033.21212091,4340.15151472,1677.33333317,4831.60606012,2921.93939365,4172.72727231,3989.33333293,4426.69696925,12.3636363624,4196.424242,4.1212121208,4837.27272679,8.2424242416,4510.1515147,3783.27272689,42.0,42.0,?
2017-06-01 17:47:05.230763,4542.60606015,0.0,4325.72727229,4.1212121208,3912.57575718,8.2424242416,3762.15151478,135.999999986,4274.21212078,239.030303006,4508.09090864,3684.363636,4183.03030261,3033.21212091,4336.54545411,1677.33333317,4822.33333285,2921.93939365,4158.8181814,3989.33333293,4426.18181774,12.3636363624,4200.54545413,4.1212121208,4842.42424194,8.2424242416,4506.54545409,3787.39393902,42.0,42.0,?
2017-06-01 17:47:05.237138,4545.69696924,0.0,4326.75757532,4.1212121208,3915.15151476,12.3636363624,3763.69696932,135.999999986,4273.69696927,239.030303006,4516.33333288,3684.363636,4197.96969655,3033.21212091,4332.93939351,1677.33333317,4816.15151467,2921.93939365,4149.03030262,3989.33333293,4425.15151471,12.3636363624,4202.09090867,4.1212121208,4835.72727224,8.2424242416,4503.96969652,3787.39393902,42.0,42.0,?
2017-06-01 17:47:05.243914,4540.54545409,0.0,4324.18181775,4.1212121208,3914.12121173,12.3636363624,3771.93939356,144.242424228,4276.27272685,239.030303006,4514.27272682,3684.363636,4204.66666625,3033.21212091,4336.0303026,1677.33333317,4824.39393891,2921.93939365,4157.78787837,3989.33333293,4431.84848441,12.3636363624,4199.5151511,4.1212121208,4841.39393891,8.2424242416,4507.57575713,3787.39393902,42.0,42.0,?
2017-06-01 17:47:05.251362,4542.09090864,0.0,4325.72727229,4.1212121208,3914.12121173,12.3636363624,3772.96969659,144.242424228,4276.78787836,239.030303006,4511.69696925,3684.363636,4205.69696928,3033.21212091,4340.66666623,1677.33333317,4831.09090861,2921.93939365,4167.57575716,3989.33333293,4426.69696925,12.3636363624,4197.96969655,4.1212121208,4842.93939346,8.2424242416,4512.21212076,3787.39393902,42.0,42.0,?
2017-06-01 17:47:05.259186,4543.12121167,0.0,4327.27272684,4.1212121208,3914.12121173,12.3636363624,3769.8787875,144.242424228,4274.21212078,239.030303006,4515.81818137,3684.363636,4213.424242,3033.21212091,4340.66666623,1677.33333317,4828.51515103,2921.93939365,4164.48484807,3989.33333293,4425.66666622,12.3636363624,4200.03030261,4.1212121208,4838.30302982,8.2424242416,4512.72727228,3787.39393902,42.0,42.0,?
2017-06-01 17:47:05.269750,4539.51515106,0.0,4327.78787836,4.1212121208,3913.60606021,12.3636363624,3775.03030265,144.242424228,4278.84848442,239.030303006,4518.39393894,3684.363636,4213.424242,3045.57575727,4342.72727229,1677.33333317,4831.09090861,2921.93939365,4167.06060564,3989.33333293,4429.27272683,12.3636363624,4201.57575716,4.1212121208,4840.36363588,8.2424242416,4516.33333288,3787.39393902,42.0,42.0,?
2017-06-01 17:47:05.275436,4541.06060561,0.0,4328.81818139,4.1212121208,3912.57575718,12.3636363624,3780.69696932,144.242424228,4280.90909048,239.030303006,4514.78787834,3684.363636,4195.39393897,3045.57575727,4343.75757532,1664.9696968,4841.39393891,2921.93939365,4177.36363595,3989.33333293,4423.09090865,12.3636363624,4199.5151511,4.1212121208,4835.21212073,8.2424242416,4520.454545,3787.39393902,42.0,42.0,?
2017-06-01 17:47:05.282780,4542.60606015,0.0,4327.78787836,4.1212121208,3911.54545415,12.3636363624,3780.69696932,144.242424228,4278.33333291,239.030303006,4512.21212076,3684.363636,4183.03030261,3045.57575727,4340.15151472,1664.9696968,4841.39393891,2930.18181789,4176.33333292,3989.33333293,4427.21212077,12.3636363624,4200.03030261,4.1212121208,4838.81818133,8.2424242416,4518.39393894,3787.39393902,42.0,42.0,?
2017-06-01 17:47:05.292800,4543.12121167,0.0,4327.78787836,4.1212121208,3913.60606021,12.3636363624,3783.27272689,144.242424228,4283.48484806,239.030303006,4514.78787834,3684.363636,4190.24242382,3045.57575727,4342.72727229,1664.9696968,4835.72727224,2930.18181789,4172.72727231,3989.33333293,4428.2424238,12.3636363624,4201.06060564,4.1212121208,4839.33333285,8.2424242416,4518.90909046,3787.39393902,42.0,42.0,?
2017-06-01 17:47:05.298319,4540.54545409,0.0,4327.27272684,4.1212121208,3913.60606021,12.3636363624,3789.45454508,144.242424228,4290.69696927,239.030303006,4515.30302985,3684.363636,4204.66666625,3045.57575727,4353.54545411,1664.9696968,4843.96969649,2930.18181789,4186.1212117,3989.33333293,4426.69696925,4.1212121208,4201.57575716,4.1212121208,4836.75757527,8.2424242416,4527.1515147,3787.39393902,42.0,42.0,?
2017-06-01 17:47:05.305684,4541.06060561,0.0,4325.21212078,4.1212121208,3913.0909087,12.3636363624,3789.96969659,144.242424228,4290.18181775,239.030303006,4515.30302985,3684.363636,4215.48484806,3045.57575727,4356.12121169,1664.9696968,4851.1818177,2930.18181789,4189.72727231,3989.33333293,4429.27272683,4.1212121208,4201.57575716,4.1212121208,4841.39393891,8.2424242416,4527.66666621,3787.39393902,42.0,42.0,?
2017-06-01 17:47:05.314337,4545.18181773,0.0,4326.75757532,4.1212121208,3914.12121173,12.3636363624,3786.36363599,144.242424228,4288.12121169,239.030303006,4516.33333288,3684.363636,4219.60606018,3045.57575727,4348.39393896,1664.9696968,4840.87878739,2930.18181789,4175.30302989,3989.33333293,4423.60606016,4.1212121208,4199.5151511,4.1212121208,4838.30302982,12.3636363624,4517.87878743,3787.39393902,42.0,42.0,?
2017-06-01 17:47:05.322788,4542.60606015,0.0,4327.27272684,4.1212121208,3912.57575718,12.3636363624,3786.8787875,144.242424228,4289.66666624,239.030303006,4515.81818137,3684.363636,4221.15151473,3045.57575727,4346.3333329,1664.9696968,4836.75757527,2930.18181789,4170.66666625,3997.57575718,4424.63636319,4.1212121208,4199.5151511,4.1212121208,4838.81818133,12.3636363624,4516.33333288,3787.39393902,42.0,42.0,?
2017-06-01 17:47:05.331424,4540.54545409,0.0,4327.78787836,4.1212121208,3913.0909087,12.3636363624,3790.48484811,144.242424228,4293.27272684,239.030303006,4519.93939349,3684.363636,4226.30302988,3045.57575727,4353.54545411,1664.9696968,4850.15151467,2930.18181789,4173.24242383,3997.57575718,4425.15151471,8.2424242416,4199.5151511,4.1212121208,4839.33333285,12.3636363624,4518.39393894,3787.39393902,42.0,42.0,?
2017-06-01 17:47:05.339163,4540.54545409,0.0,4329.84848442,4.1212121208,3914.12121173,12.3636363624,3788.93939356,144.242424228,4296.36363593,239.030303006,4524.06060561,3684.363636,4233.51515109,3045.57575727,4359.72727229,1664.9696968,4857.87878739,2930.18181789,4175.30302989,3997.57575718,4425.66666622,8.2424242416,4200.03030261,4.1212121208,4836.24242376,12.3636363624,4515.81818137,3787.39393902,42.0,42.0,?
2017-06-01 17:47:05.345793,4540.54545409,0.0,4329.84848442,4.1212121208,3912.57575718,12.3636363624,3786.8787875,144.242424228,4292.24242381,239.030303006,4516.8484844,3684.363636,4227.33333291,3045.57575727,4355.09090866,1664.9696968,4850.15151467,2930.18181789,4177.36363595,3997.57575718,4431.33333289,8.2424242416,4202.09090867,4.1212121208,4839.84848436,12.3636363624,4517.36363591,3787.39393902,42.0,42.0,?
2017-06-01 17:47:05.353898,4542.60606015,0.0,4327.78787836,4.1212121208,3912.06060567,12.3636363624,3787.90909053,144.242424228,4285.0303026,239.030303006,4510.66666622,3684.363636,4211.87878746,3045.57575727,4348.90909047,1664.9696968,4840.87878739,2930.18181789,4177.87878746,3997.57575718,4424.63636319,8.2424242416,4201.06060564,4.1212121208,4834.1818177,12.3636363624,4522.51515106,3787.39393902,42.0,42.0,?
2017-06-01 17:47:05.361847,4540.03030258,0.0,4326.24242381,4.1212121208,3911.54545415,12.3636363624,3791.51515114,144.242424228,4287.60606018,239.030303006,4514.27272682,3684.363636,4205.69696928,3045.57575727,4351.48484805,1664.9696968,4847.06060558,2930.18181789,4177.87878746,3997.57575718,4426.18181774,8.2424242416,4198.48484806,4.1212121208,4838.30302982,12.3636363624,4523.54545409,3787.39393902,42.0,42.0,?
2017-06-01 17:47:05.371230,4540.54545409,0.0,4326.75757532,4.1212121208,3913.0909087,12.3636363624,3795.63636326,144.242424228,4294.30302987,239.030303006,4518.90909046,3684.363636,4202.09090867,3045.57575727,4352.51515108,1664.9696968,4857.87878739,2930.18181789,4183.54545413,3997.57575718,4429.27272683,8.2424242416,4198.99999958,4.1212121208,4842.93939346,12.3636363624,4521.99999955,3787.39393902,42.0,42.0,?
2017-06-01 17:47:05.380432,4542.60606015,0.0,4325.72727229,4.1212121208,3914.63636324,12.3636363624,3800.78787841,144.242424228,4298.42424199,239.030303006,4517.87878743,3684.363636,4205.18181776,3045.57575727,4352.51515108,1664.9696968,4859.93939345,2930.18181789,4195.39393897,3997.57575718,4424.12121168,8.2424242416,4200.54545413,4.1212121208,4836.75757527,12.3636363624,4520.96969652,3787.39393902,42.0,42.0,?
2017-06-01 17:47:05.383732,4538.99999955,0.0,4325.72727229,4.1212121208,3913.0909087,12.3636363624,3807.99999962,144.242424228,4303.06060563,239.030303006,4515.30302985,3684.363636,4228.36363594,3045.57575727,4362.30302987,1664.9696968,4866.63636315,2930.18181789,4208.27272685,3997.57575718,4427.72727228,8.2424242416,4201.06060564,4.1212121208,4838.81818133,12.3636363624,4524.06060561,3787.39393902,42.0,42.0,?
2017-06-01 17:47:05.391875,4538.99999955,0.0,4328.30302987,4.1212121208,3912.57575718,12.3636363624,3812.12121174,144.242424228,4306.15151472,239.030303006,4519.93939349,3684.363636,4245.87878745,3045.57575727,4370.54545411,1664.9696968,4868.69696921,2930.18181789,4206.72727231,3997.57575718,4425.66666622,8.2424242416,4199.5151511,4.1212121208,4836.24242376,12.3636363624,4530.24242379,3787.39393902,42.0,42.0,?
2017-06-01 17:47:05.400442,4541.06060561,0.0,4328.30302987,4.1212121208,3912.06060567,12.3636363624,3812.63636326,144.242424228,4307.69696927,239.030303006,4525.09090864,3684.363636,4244.84848442,3045.57575727,4367.45454502,1664.9696968,4858.90909042,2930.18181789,4193.33333291,3997.57575718,4425.15151471,8.2424242416,4202.09090867,4.1212121208,4837.7878783,12.3636363624,4530.7575753,3787.39393902,42.0,42.0,?
2017-06-01 17:47:05.408129,4540.03030258,0.0,4326.75757532,4.1212121208,3913.60606021,12.3636363624,3811.60606022,144.242424228,4307.69696927,239.030303006,4526.63636318,3684.363636,4246.39393897,3045.57575727,4366.42424199,1664.9696968,4859.42424194,2930.18181789,4192.30302988,3997.57575718,4426.18181774,8.2424242416,4202.60606019,4.1212121208,4841.39393891,12.3636363624,4530.24242379,3787.39393902,42.0,42.0,?
2017-06-01 17:47:05.419068,4538.99999955,0.0,4326.75757532,4.1212121208,3915.66666628,12.3636363624,3812.12121174,144.242424228,4305.63636321,239.030303006,4529.21212076,3684.363636,4252.06060564,3045.57575727,4370.54545411,1664.9696968,4871.7878783,2930.18181789,4204.66666625,3997.57575718,4425.66666622,8.2424242416,4198.99999958,4.1212121208,4837.27272679,12.3636363624,4535.39393894,3787.39393902,42.0,42.0,?
2017-06-01 17:47:05.424420,4541.06060561,0.0,4327.27272684,4.1212121208,3914.12121173,12.3636363624,3817.27272689,144.242424228,4308.21212078,239.030303006,4529.21212076,3684.363636,4249.48484806,3045.57575727,4373.6363632,1664.9696968,4877.45454497,2930.18181789,4215.48484806,3997.57575718,4428.2424238,8.2424242416,4201.06060564,4.1212121208,4841.90909042,12.3636363624,4538.48484803,3787.39393902,42.0,42.0,?
2017-06-01 17:47:05.430712,4545.18181773,0.0,4327.78787836,4.1212121208,3914.12121173,12.3636363624,3818.81818144,144.242424228,4312.3333329,239.030303006,4525.09090864,3684.363636,4243.30302988,3045.57575727,4375.18181774,1664.9696968,4881.57575709,2930.18181789,4215.99999958,3997.57575718,4422.06060562,8.2424242416,4202.09090867,4.1212121208,4838.30302982,12.3636363624,4535.90909046,3787.39393902,42.0,42.0,?
2017-06-01 17:47:05.439264,4540.54545409,0.0,4325.72727229,4.1212121208,3914.63636324,12.3636363624,3819.84848447,144.242424228,4311.30302987,239.030303006,4521.48484803,3684.363636,4233.51515109,3045.57575727,4375.69696926,1664.9696968,4887.75757527,2930.18181789,4216.51515109,3997.57575718,4426.69696925,8.2424242416,4201.57575716,4.1212121208,4838.30302982,12.3636363624,4535.90909046,3787.39393902,42.0,42.0,?
2017-06-01 17:47:05.447548,4537.454545,0.0,4327.27272684,4.1212121208,3913.0909087,12.3636363624,3824.4848481,144.242424228,4310.27272684,239.030303006,4520.454545,3684.363636,4220.63636321,3045.57575727,4370.54545411,1664.9696968,4882.0909086,2930.18181789,4218.06060564,3997.57575718,4431.84848441,8.2424242416,4203.1212117,4.1212121208,4841.90909042,12.3636363624,4540.54545409,3787.39393902,42.0,42.0,?
2017-06-01 17:47:05.455248,4541.57575712,0.0,4329.84848442,4.1212121208,3912.06060567,12.3636363624,3824.4848481,144.242424228,4310.27272684,239.030303006,4522.51515106,3684.363636,4220.1212117,3045.57575727,4360.24242381,1664.9696968,4868.69696921,2930.18181789,4207.24242382,3997.57575718,4424.12121168,8.2424242416,4202.09090867,4.1212121208,4834.1818177,12.3636363624,4540.54545409,3787.39393902,42.0,42.0,?
2017-06-01 17:47:05.467211,4541.06060561,0.0,4327.27272684,4.1212121208,3913.0909087,12.3636363624,3824.99999962,144.242424228,4312.84848442,239.030303006,4523.03030258,3684.363636,4238.66666624,3045.57575727,4357.66666623,1664.9696968,4868.69696921,2930.18181789,4198.99999958,3997.57575718,4427.21212077,8.2424242416,4202.60606019,4.1212121208,4839.33333285,12.3636363624,4538.99999955,3787.39393902,42.0,42.0,?
2017-06-01 17:47:05.472777,4541.06060561,0.0,4326.24242381,4.1212121208,3915.66666628,12.3636363624,3827.06060568,144.242424228,4313.87878745,239.030303006,4524.06060561,3684.363636,4254.63636321,3045.57575727,4364.87878744,1664.9696968,4877.96969648,2930.18181789,4204.66666625,3997.57575718,4427.21212077,8.2424242416,4203.63636322,4.1212121208,4839.84848436,12.3636363624,4540.54545409,3787.39393902,42.0,42.0,?
2017-06-01 17:47:05.480273,4541.06060561,0.0,4328.30302987,4.1212121208,3915.15151476,12.3636363624,3824.99999962,144.242424228,4311.30302987,239.030303006,4527.1515147,3684.363636,4251.54545412,3045.57575727,4365.90909047,1664.9696968,4878.484848,2930.18181789,4208.27272685,3997.57575718,4424.63636319,8.2424242416,4203.1212117,4.1212121208,4835.72727224,12.3636363624,4537.454545,3787.39393902,42.0,42.0,?
2017-06-01 17:47:05.486686,4539.51515106,0.0,4328.30302987,4.1212121208,3912.57575718,12.3636363624,3824.4848481,144.242424228,4312.84848442,239.030303006,4528.69696924,3684.363636,4240.7272723,3045.57575727,4355.60606017,1664.9696968,4865.60606012,2930.18181789,4191.78787837,3997.57575718,4427.72727228,8.2424242416,4203.1212117,4.1212121208,4840.87878739,12.3636363624,4535.90909046,3787.39393902,42.0,42.0,?
2017-06-01 17:47:05.495492,4541.06060561,0.0,4329.84848442,4.1212121208,3915.66666628,12.3636363624,3833.75757537,144.242424228,4319.54545411,239.030303006,4528.18181773,3684.363636,4236.60606018,3045.57575727,4353.03030259,1664.9696968,4862.51515103,2930.18181789,4183.03030261,3997.57575718,4425.15151471,8.2424242416,4201.06060564,4.1212121208,4838.30302982,12.3636363624,4545.18181773,3787.39393902,42.0,42.0,?
2017-06-01 17:47:05.501791,4539.51515106,0.0,4327.27272684,4.1212121208,3915.66666628,12.3636363624,3843.54545416,144.242424228,4325.21212078,239.030303006,4527.1515147,3684.363636,4236.60606018,3045.57575727,4366.9393935,1664.9696968,4882.0909086,2930.18181789,4204.66666625,3997.57575718,4427.72727228,8.2424242416,4200.54545413,4.1212121208,4841.90909042,12.3636363624,4553.93939348,3787.39393902,42.0,42.0,?
2017-06-01 17:47:05.510628,4538.99999955,0.0,4326.75757532,4.1212121208,3913.60606021,12.3636363624,3840.96969659,144.242424228,4321.09090866,239.030303006,4524.57575712,3684.363636,4224.24242382,3045.57575727,4370.03030259,1664.9696968,4888.7878783,2930.18181789,4215.99999958,3997.57575718,4424.12121168,8.2424242416,4201.06060564,4.1212121208,4842.42424194,12.3636363624,4553.93939348,3787.39393902,42.0,42.0,?
2017-06-01 17:47:05.517349,4538.48484803,0.0,4331.39393896,4.1212121208,3914.12121173,12.3636363624,3834.7878784,144.242424228,4316.45454502,239.030303006,4519.93939349,3684.363636,4197.45454503,3045.57575727,4355.60606017,1664.9696968,4866.63636315,2930.18181789,4198.99999958,3997.57575718,4423.60606016,8.2424242416,4198.48484806,4.1212121208,4837.7878783,12.3636363624,4557.54545409,3787.39393902,42.0,42.0,?
2017-06-01 17:47:05.525145,4538.48484803,0.0,4331.39393896,4.1212121208,3913.60606021,12.3636363624,3836.33333295,144.242424228,4316.96969654,239.030303006,4518.90909046,3684.363636,4181.99999958,3045.57575727,4348.90909047,1664.9696968,4856.33333285,2930.18181789,4193.33333291,3997.57575718,4429.27272683,8.2424242416,4198.99999958,4.1212121208,4841.39393891,12.3636363624,4564.24242379,3787.39393902,42.0,42.0,?
2017-06-01 17:47:05.532690,4542.09090864,0.0,4326.75757532,4.1212121208,3913.60606021,12.3636363624,3841.99999962,144.242424228,4319.54545411,239.030303006,4520.96969652,3684.363636,4198.48484806,3045.57575727,4355.09090866,1664.9696968,4866.63636315,2930.18181789,4207.24242382,3997.57575718,4424.63636319,8.2424242416,4201.57575716,4.1212121208,4839.33333285,12.3636363624,4569.90909045,3787.39393902,42.0,42.0,?
2017-06-01 17:47:05.541516,4539.51515106,0.0,4325.72727229,4.1212121208,3913.60606021,12.3636363624,3843.03030265,144.242424228,4321.09090866,239.030303006,4519.93939349,3684.363636,4234.03030261,3045.57575727,4363.3333329,1664.9696968,4874.87878739,2930.18181789,4211.36363594,3997.57575718,4426.69696925,8.2424242416,4203.63636322,4.1212121208,4843.96969649,12.3636363624,4574.54545409,3787.39393902,42.0,42.0,?
2017-06-01 17:47:05.549675,4537.454545,0.0,4329.3333329,4.1212121208,3915.66666628,12.3636363624,3837.87878749,144.242424228,4319.0303026,239.030303006,4520.96969652,3684.363636,4251.54545412,3045.57575727,4368.99999956,1664.9696968,4881.06060557,2930.18181789,4207.24242382,3997.57575718,4425.66666622,8.2424242416,4201.06060564,4.1212121208,4843.45454497,12.3636363624,4568.36363591,3787.39393902,42.0,42.0,?
2017-06-01 17:47:05.556106,4542.60606015,0.0,4328.30302987,4.1212121208,3915.15151476,12.3636363624,3837.36363598,144.242424228,4318.51515108,239.030303006,4521.99999955,3684.363636,4247.93939351,3045.57575727,4370.54545411,1664.9696968,4885.69696921,2930.18181789,4209.30302988,3997.57575718,4424.12121168,8.2424242416,4200.54545413,4.1212121208,4836.75757527,12.3636363624,4559.60606015,3787.39393902,42.0,42.0,?
2017-06-01 17:47:05.565201,4544.1515147,0.0,4325.72727229,4.1212121208,3912.06060567,12.3636363624,3841.99999962,144.242424228,4319.0303026,239.030303006,4522.51515106,3684.363636,4247.93939351,3045.57575727,4370.54545411,1664.9696968,4883.63636315,2930.18181789,4211.87878746,3997.57575718,4429.27272683,8.2424242416,4204.15151473,4.1212121208,4841.39393891,12.3636363624,4561.1515147,3787.39393902,42.0,42.0,?
2017-06-01 17:47:05.571746,4542.60606015,0.0,4328.30302987,4.1212121208,3914.12121173,12.3636363624,3839.93939356,144.242424228,4314.90909048,239.030303006,4524.57575712,3684.363636,4244.84848442,3045.57575727,4370.03030259,1664.9696968,4875.90909042,2930.18181789,4203.63636322,3997.57575718,4423.60606016,8.2424242416,4201.57575716,4.1212121208,4836.24242376,12.3636363624,4557.54545409,3787.39393902,42.0,42.0,?
2017-06-01 17:47:05.580190,4541.57575712,0.0,4328.81818139,4.1212121208,3915.15151476,12.3636363624,3835.81818143,144.242424228,4310.27272684,239.030303006,4523.03030258,3684.363636,4231.96969655,3045.57575727,4368.99999956,1664.9696968,4875.90909042,2930.18181789,4199.5151511,3997.57575718,4426.69696925,8.2424242416,4197.45454503,4.1212121208,4836.75757527,12.3636363624,4551.87878742,3787.39393902,42.0,42.0,?
2017-06-01 17:47:05.610097,4542.60606015,0.0,4328.81818139,4.1212121208,3914.12121173,12.3636363624,3838.39393901,144.242424228,4308.21212078,239.030303006,4520.454545,3684.363636,4220.1212117,3045.57575727,4365.39393896,1664.9696968,4885.18181769,2930.18181789,4204.66666625,3997.57575718,4430.30302986,8.2424242416,4198.48484806,4.1212121208,4839.84848436,12.3636363624,4555.48484803,3787.39393902,42.0,42.0,?
2017-06-01 17:47:05.613686,4541.57575712,0.0,4329.84848442,4.1212121208,3912.06060567,12.3636363624,3837.36363598,144.242424228,4305.12121169,239.030303006,4518.90909046,3684.363636,4203.1212117,3045.57575727,4358.69696926,1664.9696968,4888.27272678,2930.18181789,4206.72727231,3997.57575718,4426.18181774,8.2424242416,4197.45454503,4.1212121208,4837.27272679,12.3636363624,4554.96969651,3787.39393902,42.0,42.0,?
2017-06-01 17:47:05.617122,4540.03030258,0.0,4328.30302987,4.1212121208,3911.54545415,12.3636363624,3835.30302992,144.242424228,4306.66666624,239.030303006,4513.24242379,3684.363636,4178.90909049,3045.57575727,4354.57575714,1664.9696968,4881.06060557,2930.18181789,4210.33333291,3997.57575718,4427.72727228,8.2424242416,4197.45454503,4.1212121208,4841.39393891,12.3636363624,4551.36363591,3787.39393902,42.0,42.0,?
2017-06-01 17:47:05.620258,4542.60606015,0.0,4328.30302987,4.1212121208,3914.63636324,12.3636363624,3838.39393901,144.242424228,4310.78787836,239.030303006,4515.30302985,3684.363636,4175.8181814,3045.57575727,4354.57575714,1664.9696968,4874.36363588,2930.18181789,4207.24242382,3997.57575718,4425.15151471,8.2424242416,4200.03030261,4.1212121208,4838.30302982,12.3636363624,4551.87878742,3787.39393902,42.0,42.0,?
2017-06-01 17:47:05.628125,4538.99999955,0.0,4327.27272684,4.1212121208,3915.15151476,12.3636363624,3840.96969659,144.242424228,4310.78787836,239.030303006,4525.09090864,3684.363636,4205.18181776,3045.57575727,4358.18181775,1664.9696968,4872.81818133,2930.18181789,4196.93939352,3997.57575718,4428.75757531,8.2424242416,4202.09090867,4.1212121208,4839.33333285,12.3636363624,4549.81818136,3787.39393902,42.0,42.0,?
2017-06-01 17:47:05.633741,4538.99999955,0.0,4326.75757532,4.1212121208,3913.0909087,12.3636363624,3839.93939356,144.242424228,4309.24242381,239.030303006,4525.09090864,3684.363636,4236.09090867,3045.57575727,4361.78787835,1664.9696968,4869.72727224,2930.18181789,4194.36363594,3997.57575718,4430.30302986,8.2424242416,4199.5151511,4.1212121208,4840.87878739,12.3636363624,4546.72727227,3787.39393902,42.0,42.0,?
2017-06-01 17:47:05.636792,4544.66666621,0.0,4327.78787836,4.1212121208,3913.0909087,12.3636363624,3839.42424204,144.242424228,4309.24242381,239.030303006,4521.99999955,3684.363636,4244.33333291,3045.57575727,4363.3333329,1664.9696968,4866.63636315,2930.18181789,4191.78787837,3997.57575718,4422.57575713,8.2424242416,4197.45454503,4.1212121208,4834.1818177,12.3636363624,4549.81818136,3787.39393902,42.0,42.0,?
2017-06-01 17:47:05.642407,4542.09090864,0.0,4327.27272684,4.1212121208,3914.63636324,12.3636363624,3841.4848481,144.242424228,4309.75757533,239.030303006,4526.12121167,3684.363636,4246.90909048,3045.57575727,4365.90909047,1664.9696968,4872.81818133,2930.18181789,4187.66666625,3997.57575718,4427.72727228,8.2424242416,4200.54545413,4.1212121208,4837.7878783,12.3636363624,4549.81818136,3787.39393902,42.0,42.0,?
2017-06-01 17:47:05.649756,4542.60606015,0.0,4328.30302987,4.1212121208,3915.66666628,12.3636363624,3843.03030265,144.242424228,4312.84848442,239.030303006,4527.66666621,3684.363636,4249.99999958,3045.57575727,4369.51515108,1664.9696968,4883.63636315,2930.18181789,4195.90909049,3997.57575718,4426.18181774,8.2424242416,4200.54545413,4.1212121208,4838.81818133,12.3636363624,4546.21212076,3787.39393902,42.0,42.0,?
2017-06-01 17:47:05.659493,4543.63636318,0.0,4330.36363593,4.1212121208,3914.63636324,12.3636363624,3846.12121174,144.242424228,4316.45454502,239.030303006,4522.51515106,3684.363636,4238.66666624,3045.57575727,4367.45454502,1664.9696968,4882.60606012,2930.18181789,4206.72727231,3997.57575718,4425.15151471,8.2424242416,4201.06060564,4.1212121208,4838.81818133,12.3636363624,4546.72727227,3787.39393902,42.0,42.0,?
2017-06-01 17:47:05.665771,4540.54545409,0.0,4327.78787836,4.1212121208,3914.63636324,12.3636363624,3849.21212083,144.242424228,4313.36363593,239.030303006,4519.93939349,3684.363636,4220.63636321,3045.57575727,4361.27272684,1664.9696968,4873.84848436,2930.18181789,4203.1212117,3997.57575718,4428.75757531,8.2424242416,4202.09090867,4.1212121208,4840.87878739,12.3636363624,4549.30302985,3787.39393902,42.0,42.0,?
2017-06-01 17:47:05.673685,4541.57575712,0.0,4325.72727229,4.1212121208,3914.12121173,12.3636363624,3849.21212083,144.242424228,4307.69696927,239.030303006,4519.42424197,3684.363636,4203.63636322,3045.57575727,4360.24242381,1664.9696968,4877.45454497,2930.18181789,4200.54545413,3997.57575718,4426.18181774,8.2424242416,4200.54545413,4.1212121208,4835.72727224,12.3636363624,4548.27272682,3787.39393902,42.0,42.0,?
2017-06-01 17:47:05.683831,4542.09090864,0.0,4326.75757532,4.1212121208,3912.06060567,12.3636363624,3851.7878784,144.242424228,4308.21212078,239.030303006,4515.30302985,3684.363636,4178.39393898,3045.57575727,4359.72727229,1664.9696968,4884.15151466,2930.18181789,4208.78787837,3997.57575718,4430.30302986,8.2424242416,4204.15151473,4.1212121208,4841.39393891,12.3636363624,4550.33333288,3787.39393902,42.0,42.0,?
2017-06-01 17:47:05.689158,4542.09090864,0.0,4327.78787836,4.1212121208,3914.12121173,12.3636363624,3852.81818143,144.242424228,4307.69696927,239.030303006,4514.78787834,3684.363636,4162.42424201,3045.57575727,4351.48484805,1664.9696968,4875.39393891,2930.18181789,4207.24242382,3997.57575718,4427.72727228,8.2424242416,4204.15151473,4.1212121208,4842.42424194,12.3636363624,4551.36363591,3787.39393902,42.0,42.0,?
2017-06-01 17:47:05.698364,4541.06060561,0.0,4327.78787836,4.1212121208,3914.12121173,12.3636363624,3848.69696931,144.242424228,4305.12121169,239.030303006,4517.36363591,3684.363636,4185.09090867,3045.57575727,4349.9393935,1664.9696968,4868.1818177,2930.18181789,4195.39393897,3997.57575718,4425.15151471,8.2424242416,4198.48484806,4.1212121208,4837.7878783,12.3636363624,4542.60606015,3787.39393902,42.0,42.0,?
2017-06-01 17:47:05.711673,4538.99999955,0.0,4327.78787836,4.1212121208,3911.54545415,12.3636363624,3847.15151477,144.242424228,4307.18181775,239.030303006,4517.87878743,3684.363636,4225.78787837,3045.57575727,4360.24242381,1664.9696968,4873.33333285,2930.18181789,4189.72727231,3997.57575718,4426.69696925,8.2424242416,4198.48484806,4.1212121208,4839.84848436,12.3636363624,4532.81818136,3787.39393902,42.0,42.0,?
2017-06-01 17:47:05.716759,4541.57575712,8.2424242416,4327.27272684,4.1212121208,3913.60606021,12.3636363624,3845.60606022,144.242424228,4307.69696927,239.030303006,4519.93939349,3684.363636,4245.87878745,3045.57575727,4361.78787835,1664.9696968,4874.87878739,2930.18181789,4189.21212079,3997.57575718,4422.06060562,8.2424242416,4198.99999958,4.1212121208,4837.7878783,12.3636363624,4531.78787833,3787.39393902,42.0,42.0,?
2017-06-01 17:47:05.725426,4541.57575712,8.2424242416,4327.27272684,12.3636363624,3913.0909087,12.3636363624,3849.21212083,144.242424228,4306.15151472,239.030303006,4522.51515106,3684.363636,4247.93939351,3045.57575727,4361.27272684,1664.9696968,4874.87878739,2930.18181789,4192.8181814,3997.57575718,4428.2424238,8.2424242416,4198.99999958,4.1212121208,4843.45454497,12.3636363624,4532.81818136,3787.39393902,42.0,42.0,?
2017-06-01 17:47:05.731666,4540.03030258,8.2424242416,4329.3333329,12.3636363624,3912.57575718,12.3636363624,3852.81818143,144.242424228,4306.66666624,239.030303006,4523.03030258,3684.363636,4247.93939351,3045.57575727,4368.48484805,1664.9696968,4881.06060557,2930.18181789,4191.78787837,3997.57575718,4427.72727228,8.2424242416,4198.99999958,4.1212121208,4840.87878739,12.3636363624,4527.66666621,3775.03030265,42.0,42.0,?
2017-06-01 17:47:05.735675,4541.06060561,8.2424242416,4329.84848442,12.3636363624,3914.63636324,12.3636363624,3849.21212083,144.242424228,4306.15151472,239.030303006,4520.454545,3684.363636,4245.36363594,3045.57575727,4371.06060562,1664.9696968,4884.66666618,2930.18181789,4186.1212117,3997.57575718,4421.5454541,8.2424242416,4198.48484806,4.1212121208,4834.1818177,12.3636363624,4522.51515106,3775.03030265,42.0,42.0,?
2017-06-01 17:47:05.743883,4541.06060561,8.2424242416,4328.30302987,12.3636363624,3914.12121173,12.3636363624,3845.60606022,131.878787866,4305.63636321,239.030303006,4520.96969652,3684.363636,4237.1212117,3045.57575727,4365.39393896,1664.9696968,4880.54545406,2930.18181789,4189.72727231,3997.57575718,4425.15151471,8.2424242416,4198.99999958,4.1212121208,4841.39393891,12.3636363624,4525.60606015,3775.03030265,42.0,42.0,?
2017-06-01 17:47:05.756174,4540.54545409,8.2424242416,4328.30302987,12.3636363624,3913.60606021,12.3636363624,3846.63636325,131.878787866,4305.12121169,243.151515127,4522.51515106,3684.363636,4229.39393897,3045.57575727,4361.78787835,1664.9696968,4877.96969648,2930.18181789,4199.5151511,3997.57575718,4424.63636319,8.2424242416,4200.54545413,4.1212121208,4838.81818133,12.3636363624,4532.81818136,3775.03030265,42.0,42.0,?
2017-06-01 17:47:05.761293,4540.54545409,8.2424242416,4327.78787836,12.3636363624,3913.0909087,12.3636363624,3851.27272689,131.878787866,4306.66666624,243.151515127,4518.39393894,3688.48484812,4214.96969655,3045.57575727,4365.39393896,1664.9696968,4887.75757527,2930.18181789,4209.8181814,3997.57575718,4425.66666622,8.2424242416,4202.60606019,4.1212121208,4840.36363588,12.3636363624,4535.39393894,3775.03030265,42.0,42.0,?
2017-06-01 17:47:05.769928,4543.12121167,8.2424242416,4327.27272684,12.3636363624,3914.63636324,12.3636363624,3850.24242386,131.878787866,4305.63636321,243.151515127,4515.81818137,3688.48484812,4178.39393898,3041.45454515,4359.21212078,1664.9696968,4893.93939345,2930.18181789,4208.78787837,3997.57575718,4424.63636319,8.2424242416,4199.5151511,4.1212121208,4842.42424194,12.3636363624,4528.69696924,3775.03030265,42.0,42.0,?
2017-06-01 17:47:05.775282,4544.66666621,8.2424242416,4326.24242381,12.3636363624,3914.12121173,12.3636363624,3843.54545416,131.878787866,4301.51515109,243.151515127,4516.8484844,3688.48484812,4152.12121171,3041.45454515,4344.78787835,1664.9696968,4880.54545406,2930.18181789,4194.36363594,3997.57575718,4425.66666622,8.2424242416,4199.5151511,4.1212121208,4837.7878783,12.3636363624,4520.96969652,3775.03030265,42.0,42.0,?
2017-06-01 17:47:05.784543,4543.12121167,8.2424242416,4326.24242381,12.3636363624,3911.03030264,12.3636363624,3838.90909053,131.878787866,4298.42424199,243.151515127,4518.39393894,3688.48484812,4182.5151511,3041.45454515,4345.81818138,1664.9696968,4869.72727224,2930.18181789,4186.63636322,3997.57575718,4430.30302986,8.2424242416,4204.15151473,4.1212121208,4841.39393891,12.3636363624,4524.57575712,3775.03030265,42.0,42.0,?
2017-06-01 17:47:05.793947,4544.66666621,8.2424242416,4329.3333329,12.3636363624,3913.60606021,12.3636363624,3836.84848446,131.878787866,4296.87878745,243.151515127,4519.42424197,3688.48484812,4233.51515109,3041.45454515,4361.78787835,1664.9696968,4878.484848,2930.18181789,4194.36363594,3993.45454506,4420.51515107,8.2424242416,4202.09090867,4.1212121208,4838.30302982,12.3636363624,4530.24242379,3775.03030265,42.0,42.0,?
2017-06-01 17:47:05.799539,4543.63636318,8.2424242416,4328.30302987,12.3636363624,3915.15151476,12.3636363624,3835.30302992,131.878787866,4293.78787836,243.151515127,4519.42424197,3688.48484812,4257.7272723,3041.45454515,4370.03030259,1664.9696968,4890.84848436,2930.18181789,4204.15151473,3993.45454506,4423.60606016,4.1212121208,4201.57575716,4.1212121208,4838.30302982,12.3636363624,4526.12121167,3775.03030265,42.0,42.0,?
2017-06-01 17:47:05.807544,4541.06060561,8.2424242416,4326.75757532,12.3636363624,3913.60606021,12.3636363624,3835.30302992,131.878787866,4293.78787836,243.151515127,4521.48484803,3688.48484812,4261.84848442,3041.45454515,4368.48484805,1664.9696968,4889.30302981,2930.18181789,4196.93939352,3993.45454506,4428.75757531,4.1212121208,4202.60606019,4.1212121208,4839.33333285,12.3636363624,4517.87878743,3775.03030265,42.0,42.0,?
2017-06-01 17:47:05.814274,4542.09090864,8.2424242416,4327.27272684,12.3636363624,3913.0909087,12.3636363624,3836.84848446,131.878787866,4298.42424199,243.151515127,4521.99999955,3688.48484812,4260.81818139,3041.45454515,4367.96969653,1664.9696968,4883.12121163,2930.18181789,4186.1212117,3993.45454506,4421.03030259,4.1212121208,4201.06060564,4.1212121208,4834.69696921,8.2424242416,4515.81818137,3775.03030265,42.0,42.0,?
2017-06-01 17:47:05.832847,4541.57575712,8.2424242416,4326.24242381,12.3636363624,3912.57575718,12.3636363624,3836.33333295,131.878787866,4298.93939351,243.151515127,4519.42424197,3688.48484812,4252.06060564,3041.45454515,4368.48484805,1664.9696968,4882.60606012,2930.18181789,4187.66666625,3993.45454506,4426.18181774,4.1212121208,4201.57575716,4.1212121208,4841.90909042,8.2424242416,4520.96969652,3775.03030265,42.0,42.0,?
2017-06-01 17:47:05.837326,4541.06060561,8.2424242416,4326.75757532,12.3636363624,3914.63636324,12.3636363624,3836.33333295,131.878787866,4293.78787836,243.151515127,4518.39393894,3688.48484812,4236.09090867,3041.45454515,4361.78787835,1664.9696968,4881.57575709,2930.18181789,4190.75757534,3993.45454506,4428.2424238,12.3636363624,4200.54545413,4.1212121208,4841.39393891,8.2424242416,4524.57575712,3775.03030265,42.0,42.0,?
2017-06-01 17:47:05.841800,4538.48484803,8.2424242416,4326.75757532,12.3636363624,3915.15151476,12.3636363624,3840.96969659,131.878787866,4293.78787836,243.151515127,4514.78787834,3688.48484812,4218.57575715,3041.45454515,4357.15151472,1664.9696968,4884.66666618,2930.18181789,4193.84848443,3993.45454506,4428.2424238,12.3636363624,4201.06060564,0.0,4838.81818133,8.2424242416,4527.1515147,3775.03030265,42.0,42.0,?
2017-06-01 17:47:05.846669,4541.06060561,8.2424242416,4325.21212078,12.3636363624,3912.06060567,12.3636363624,3848.1818178,131.878787866,4300.99999957,243.151515127,4512.72727228,3688.48484812,4196.424242,3041.45454515,4359.72727229,1664.9696968,4898.57575709,2930.18181789,4202.09090867,3993.45454506,4428.2424238,12.3636363624,4204.15151473,0.0,4840.87878739,8.2424242416,4528.69696924,3775.03030265,42.0,42.0,?
2017-06-01 17:47:05.854229,4542.60606015,8.2424242416,4328.81818139,12.3636363624,3912.06060567,12.3636363624,3849.72727234,131.878787866,4304.60606018,243.151515127,4517.36363591,3688.48484812,4174.27272686,3041.45454515,4356.12121169,1664.9696968,4902.18181769,2930.18181789,4211.36363594,3993.45454506,4422.57575713,12.3636363624,4204.15151473,0.0,4836.75757527,8.2424242416,4530.24242379,3775.03030265,42.0,42.0,?
2017-06-01 17:47:05.860865,4536.93939349,8.2424242416,4329.84848442,12.3636363624,3911.54545415,12.3636363624,3848.69696931,131.878787866,4306.66666624,243.151515127,4522.51515106,3688.48484812,4180.45454504,3041.45454515,4354.57575714,1664.9696968,4890.84848436,2930.18181789,4208.78787837,3993.45454506,4427.72727228,12.3636363624,4202.09090867,0.0,4841.90909042,8.2424242416,4534.87878743,3775.03030265,42.0,42.0,?
2017-06-01 17:47:05.871269,4540.54545409,8.2424242416,4327.78787836,12.3636363624,3910.51515112,12.3636363624,3849.72727234,131.878787866,4308.7272723,243.151515127,4528.18181773,3688.48484812,4209.30302988,3041.45454515,4370.03030259,1664.9696968,4895.484848,2930.18181789,4205.69696928,3993.45454506,4426.18181774,12.3636363624,4200.54545413,0.0,4840.87878739,8.2424242416,4534.36363591,3775.03030265,42.0,42.0,?
2017-06-01 17:47:05.877424,4544.66666621,8.2424242416,4326.75757532,12.3636363624,3911.54545415,12.3636363624,3853.84848446,131.878787866,4310.27272684,243.151515127,4533.33333288,3688.48484812,4232.48484806,3041.45454515,4382.90909047,1664.9696968,4916.0909086,2930.18181789,4214.45454503,3993.45454506,4426.69696925,12.3636363624,4202.60606019,0.0,4838.30302982,8.2424242416,4531.27272682,3775.03030265,42.0,42.0,?
2017-06-01 17:47:05.886227,4541.06060561,8.2424242416,4326.75757532,12.3636363624,3913.0909087,12.3636363624,3858.99999961,131.878787866,4312.84848442,243.151515127,4529.72727227,3688.48484812,4249.99999958,3041.45454515,4382.39393896,1664.9696968,4918.15151466,2930.18181789,4218.06060564,3993.45454506,4428.75757531,12.3636363624,4204.15151473,0.0,4842.93939346,8.2424242416,4529.72727227,3775.03030265,42.0,42.0,?
2017-06-01 17:47:05.892787,4541.06060561,8.2424242416,4328.81818139,12.3636363624,3914.12121173,12.3636363624,3860.54545416,131.878787866,4313.36363593,243.151515127,4527.66666621,3688.48484812,4256.69696927,3041.45454515,4376.21212077,1664.9696968,4903.21212072,2930.18181789,4205.69696928,3993.45454506,4422.57575713,12.3636363624,4197.96969655,0.0,4837.27272679,8.2424242416,4524.06060561,3775.03030265,42.0,42.0,?
2017-06-01 17:47:05.900625,4542.09090864,8.2424242416,4329.84848442,12.3636363624,3912.57575718,12.3636363624,3858.4848481,131.878787866,4312.84848442,243.151515127,4530.7575753,3688.48484812,4253.60606018,3041.45454515,4375.69696926,1664.9696968,4902.18181769,2930.18181789,4200.54545413,3993.45454506,4426.18181774,12.3636363624,4198.99999958,0.0,4838.81818133,8.2424242416,4519.42424197,3775.03030265,42.0,42.0,?
2017-06-01 17:47:05.910013,4542.60606015,8.2424242416,4331.39393896,12.3636363624,3913.0909087,12.3636363624,3856.42424204,131.878787866,4312.3333329,243.151515127,4526.63636318,3688.48484812,4258.24242382,3041.45454515,4383.42424199,1664.9696968,4911.45454496,2930.18181789,4210.33333291,3993.45454506,4426.18181774,12.3636363624,4203.63636322,0.0,4840.36363588,8.2424242416,4521.99999955,3775.03030265,42.0,42.0,?
2017-06-01 17:47:05.916070,4541.06060561,8.2424242416,4328.30302987,12.3636363624,3914.12121173,12.3636363624,3862.0909087,131.878787866,4311.30302987,243.151515127,4516.8484844,3688.48484812,4259.78787836,3041.45454515,4387.03030259,1664.9696968,4918.15151466,2930.18181789,4215.48484806,3993.45454506,4425.15151471,12.3636363624,4202.09090867,0.0,4837.7878783,8.2424242416,4527.66666621,3775.03030265,42.0,42.0,?
2017-06-01 17:47:05.925578,4540.54545409,8.2424242416,4324.18181775,12.3636363624,3912.57575718,12.3636363624,3866.21212083,131.878787866,4308.7272723,243.151515127,4514.27272682,3688.48484812,4239.18181776,3041.45454515,4381.87878744,1664.9696968,4917.63636314,2930.18181789,4212.90909049,3993.45454506,4429.78787834,12.3636363624,4199.5151511,0.0,4840.87878739,8.2424242416,4530.24242379,3775.03030265,42.0,42.0,?
2017-06-01 17:47:05.932071,4543.12121167,8.2424242416,4326.75757532,12.3636363624,3913.60606021,12.3636363624,3859.51515113,131.878787866,4305.63636321,243.151515127,4517.36363591,3688.48484812,4204.15151473,3041.45454515,4370.54545411,1664.9696968,4907.33333284,2930.18181789,4207.75757534,3993.45454506,4425.15151471,12.3636363624,4198.48484806,0.0,4837.7878783,8.2424242416,4528.18181773,3775.03030265,42.0,42.0,?
2017-06-01 17:47:05.939719,4541.06060561,8.2424242416,4327.78787836,12.3636363624,3914.63636324,12.3636363624,3855.90909052,131.878787866,4304.09090866,243.151515127,4516.8484844,3688.48484812,4181.99999958,3041.45454515,4360.75757532,1664.9696968,4902.69696921,2930.18181789,4206.21212079,3993.45454506,4426.69696925,12.3636363624,4198.48484806,0.0,4841.90909042,8.2424242416,4519.93939349,3775.03030265,42.0,42.0,?
2017-06-01 17:47:05.949361,4542.09090864,8.2424242416,4328.30302987,12.3636363624,3914.12121173,12.3636363624,3857.45454507,131.878787866,4303.57575715,243.151515127,4518.90909046,3688.48484812,4185.09090867,3041.45454515,4355.60606017,1664.9696968,4899.60606012,2930.18181789,4207.24242382,3993.45454506,4426.18181774,12.3636363624,4198.99999958,0.0,4842.93939346,8.2424242416,4512.72727228,3775.03030265,42.0,42.0,?
2017-06-01 17:47:05.955335,4543.12121167,8.2424242416,4328.81818139,12.3636363624,3914.63636324,12.3636363624,3856.93939355,131.878787866,4302.54545412,243.151515127,4523.03030258,3688.48484812,4203.1212117,3041.45454515,4356.6363632,1664.9696968,4895.99999951,2930.18181789,4204.66666625,3993.45454506,4426.18181774,12.3636363624,4201.06060564,0.0,4836.24242376,8.2424242416,4509.12121167,3775.03030265,42.0,42.0,?
2017-06-01 17:47:05.962764,4540.03030258,8.2424242416,4327.27272684,12.3636363624,3914.12121173,12.3636363624,3856.93939355,131.878787866,4304.60606018,243.151515127,4521.48484803,3688.48484812,4225.27272685,3041.45454515,4367.45454502,1664.9696968,4905.7878783,2930.18181789,4204.66666625,3993.45454506,4431.33333289,12.3636363624,4203.1212117,0.0,4840.36363588,8.2424242416,4506.54545409,3775.03030265,42.0,42.0,?
2017-06-01 17:47:05.970970,4542.09090864,8.2424242416,4325.21212078,12.3636363624,3915.66666628,12.3636363624,3856.93939355,131.878787866,4305.63636321,243.151515127,4519.93939349,3688.48484812,4240.21212079,3041.45454515,4372.09090865,1664.9696968,4906.30302981,2930.18181789,4197.45454503,3993.45454506,4425.66666622,12.3636363624,4200.03030261,0.0,4839.33333285,8.2424242416,4502.42424197,3775.03030265,42.0,42.0,?
2017-06-01 17:47:05.978713,4542.60606015,8.2424242416,4326.75757532,12.3636363624,3913.60606021,12.3636363624,3852.81818143,131.878787866,4301.51515109,243.151515127,4518.90909046,3688.48484812,4246.90909048,3041.45454515,4363.3333329,1664.9696968,4891.36363587,2930.18181789,4184.06060564,3993.45454506,4426.18181774,12.3636363624,4198.48484806,0.0,4842.42424194,8.2424242416,4500.36363591,3775.03030265,42.0,42.0,?
2017-06-01 17:47:05.986989,4541.57575712,8.2424242416,4328.81818139,12.3636363624,3911.54545415,12.3636363624,3849.72727234,131.878787866,4293.78787836,243.151515127,4515.81818137,3688.48484812,4242.78787836,3041.45454515,4357.66666623,1664.9696968,4891.36363587,2930.18181789,4190.75757534,3993.45454506,4428.75757531,12.3636363624,4198.48484806,0.0,4843.96969649,8.2424242416,4503.454545,3775.03030265,42.0,42.0,?
2017-06-01 17:47:05.994772,4542.09090864,8.2424242416,4326.75757532,12.3636363624,3913.0909087,12.3636363624,3849.21212083,131.878787866,4289.15151472,243.151515127,4507.57575713,3688.48484812,4229.90909049,3041.45454515,4364.87878744,1664.9696968,4903.21212072,2930.18181789,4206.21212079,3993.45454506,4427.21212077,12.3636363624,4198.48484806,0.0,4836.75757527,8.2424242416,4502.93939349,3775.03030265,42.0,42.0,?
2017-06-01 17:47:06.002346,4540.54545409,8.2424242416,4325.72727229,12.3636363624,3914.12121173,12.3636363624,3849.72727234,131.878787866,4288.63636321,243.151515127,4501.90909046,3688.48484812,4220.63636321,3041.45454515,4366.42424199,1664.9696968,4899.0909086,2930.18181789,4197.96969655,3993.45454506,4430.81818138,12.3636363624,4200.54545413,0.0,4839.84848436,8.2424242416,4499.8484844,3775.03030265,42.0,42.0,?
2017-06-01 17:47:06.009631,4542.09090864,8.2424242416,4328.30302987,12.3636363624,3914.63636324,12.3636363624,3851.7878784,131.878787866,4290.18181775,243.151515127,4508.09090864,3688.48484812,4206.21212079,3041.45454515,4355.09090866,1664.9696968,4888.27272678,2930.18181789,4184.06060564,3993.45454506,4428.2424238,12.3636363624,4199.5151511,0.0,4837.7878783,8.2424242416,4501.90909046,3775.03030265,42.0,42.0,?
2017-06-01 17:47:06.018286,4541.57575712,8.2424242416,4326.24242381,12.3636363624,3912.06060567,12.3636363624,3856.42424204,131.878787866,4294.30302987,243.151515127,4516.33333288,3688.48484812,4182.5151511,3041.45454515,4347.87878744,1664.9696968,4891.87878739,2930.18181789,4196.424242,3993.45454506,4429.78787834,12.3636363624,4200.54545413,0.0,4839.33333285,8.2424242416,4507.57575713,3775.03030265,42.0,42.0,?
2017-06-01 17:47:06.026528,4538.99999955,8.2424242416,4325.72727229,12.3636363624,3912.06060567,12.3636363624,3858.99999961,131.878787866,4300.48484805,243.151515127,4518.90909046,3688.48484812,4165.5151511,3041.45454515,4345.30302987,1664.9696968,4895.99999951,2930.18181789,4208.78787837,3993.45454506,4427.21212077,12.3636363624,4204.15151473,0.0,4841.90909042,8.2424242416,4507.06060561,3775.03030265,42.0,42.0,?
2017-06-01 17:47:06.033474,4541.06060561,8.2424242416,4329.3333329,12.3636363624,3912.57575718,12.3636363624,3855.39393901,131.878787866,4302.0303026,243.151515127,4523.03030258,3688.48484812,4174.78787837,3041.45454515,4344.78787835,1664.9696968,4890.33333284,2930.18181789,4201.57575716,3993.45454506,4420.51515107,12.3636363624,4201.06060564,0.0,4836.24242376,8.2424242416,4500.87878743,3775.03030265,42.0,42.0,?
2017-06-01 17:47:06.041352,4541.57575712,8.2424242416,4326.24242381,12.3636363624,3912.57575718,12.3636363624,3856.42424204,131.878787866,4305.12121169,243.151515127,4525.09090864,3688.48484812,4208.27272685,3041.45454515,4355.60606017,1664.9696968,4893.42424193,2930.18181789,4204.15151473,3993.45454506,4426.69696925,12.3636363624,4198.99999958,0.0,4841.39393891,8.2424242416,4496.75757531,3775.03030265,42.0,42.0,?
2017-06-01 17:47:06.053122,4540.54545409,8.2424242416,4324.69696926,12.3636363624,3914.63636324,12.3636363624,3862.60606022,131.878787866,4309.24242381,243.151515127,4526.12121167,3688.48484812,4243.30302988,3041.45454515,4371.57575714,1664.9696968,4906.81818133,2930.18181789,4210.33333291,3993.45454506,4424.12121168,12.3636363624,4200.03030261,0.0,4839.33333285,8.2424242416,4492.12121167,3775.03030265,42.0,42.0,?
2017-06-01 17:47:06.065797,4539.51515106,8.2424242416,4329.84848442,12.3636363624,3912.06060567,12.3636363624,3863.63636325,131.878787866,4309.24242381,243.151515127,4525.60606015,3688.48484812,4261.84848442,3041.45454515,4377.2424238,1664.9696968,4911.45454496,2930.18181789,4202.09090867,3993.45454506,4425.66666622,12.3636363624,4201.06060564,0.0,4836.75757527,8.2424242416,4492.12121167,3775.03030265,42.0,42.0,?
2017-06-01 17:47:06.073827,4540.54545409,8.2424242416,4329.3333329,12.3636363624,3911.54545415,12.3636363624,3860.54545416,131.878787866,4301.51515109,243.151515127,4516.33333288,3688.48484812,4259.27272685,3041.45454515,4371.57575714,1664.9696968,4909.3939389,2930.18181789,4200.54545413,3993.45454506,4430.81818138,12.3636363624,4201.06060564,0.0,4841.39393891,8.2424242416,4498.81818137,3775.03030265,42.0,42.0,?
2017-06-01 17:47:06.077874,4542.09090864,8.2424242416,4327.27272684,12.3636363624,3915.66666628,12.3636363624,3859.51515113,131.878787866,4293.27272684,243.151515127,4508.09090864,3688.48484812,4246.90909048,3041.45454515,4368.99999956,1664.9696968,4910.42424193,2930.18181789,4212.39393897,3993.45454506,4424.12121168,12.3636363624,4198.99999958,0.0,4836.24242376,8.2424242416,4502.93939349,3775.03030265,42.0,42.0,?
2017-06-01 17:47:06.080756,4540.03030258,8.2424242416,4330.87878745,12.3636363624,3915.66666628,12.3636363624,3863.63636325,131.878787866,4295.3333329,243.151515127,4512.21212076,3688.48484812,4241.24242382,3041.45454515,4372.09090865,1664.9696968,4908.87878739,2930.18181789,4215.99999958,3993.45454506,4428.2424238,12.3636363624,4200.54545413,0.0,4840.36363588,8.2424242416,4502.93939349,3775.03030265,42.0,42.0,?
2017-06-01 17:47:06.090159,4542.60606015,8.2424242416,4330.36363593,12.3636363624,3913.0909087,12.3636363624,3864.66666628,131.878787866,4299.45454502,243.151515127,4516.33333288,3688.48484812,4234.03030261,3041.45454515,4371.06060562,1664.9696968,4904.24242375,2930.18181789,4211.87878746,3993.45454506,4427.72727228,12.3636363624,4200.54545413,0.0,4840.87878739,8.2424242416,4506.03030258,3775.03030265,42.0,42.0,?
2017-06-01 17:47:06.096655,4544.66666621,8.2424242416,4325.21212078,12.3636363624,3911.03030264,12.3636363624,3862.0909087,131.878787866,4300.48484805,243.151515127,4511.18181773,3688.48484812,4210.84848443,3041.45454515,4365.39393896,1664.9696968,4902.18181769,2930.18181789,4206.72727231,3993.45454506,4424.63636319,12.3636363624,4199.5151511,0.0,4838.30302982,8.2424242416,4512.21212076,3775.03030265,42.0,42.0,?
2017-06-01 17:47:06.105462,4540.54545409,8.2424242416,4327.27272684,12.3636363624,3909.99999961,12.3636363624,3861.06060567,131.878787866,4300.99999957,243.151515127,4511.69696925,3688.48484812,4180.45454504,3041.45454515,4360.75757532,1664.9696968,4899.60606012,2930.18181789,4195.90909049,3993.45454506,4426.69696925,12.3636363624,4200.54545413,0.0,4841.39393891,8.2424242416,4506.03030258,3775.03030265,42.0,42.0,?
2017-06-01 17:47:06.111678,4540.54545409,8.2424242416,4332.42424199,12.3636363624,3914.12121173,12.3636363624,3860.03030264,131.878787866,4298.93939351,243.151515127,4520.96969652,3688.48484812,4166.03030261,3041.45454515,4353.54545411,1664.9696968,4894.45454497,2930.18181789,4187.66666625,3993.45454506,4422.57575713,12.3636363624,4198.99999958,0.0,4836.24242376,8.2424242416,4495.21212076,3775.03030265,42.0,42.0,?
2017-06-01 17:47:06.120440,4541.57575712,8.2424242416,4330.36363593,12.3636363624,3915.15151476,12.3636363624,3857.45454507,131.878787866,4297.90909048,243.151515127,4523.03030258,3688.48484812,4179.42424201,3041.45454515,4349.42424199,1664.9696968,4888.7878783,2930.18181789,4186.63636322,3993.45454506,4425.66666622,12.3636363624,4198.99999958,0.0,4838.30302982,8.2424242416,4501.90909046,3775.03030265,42.0,42.0,?
2017-06-01 17:47:06.126681,4540.03030258,8.2424242416,4329.3333329,12.3636363624,3913.0909087,12.3636363624,3857.96969658,131.878787866,4303.06060563,243.151515127,4521.99999955,3688.48484812,4212.90909049,3041.45454515,4357.15151472,1664.9696968,4891.87878739,2930.18181789,4182.5151511,3993.45454506,4424.63636319,12.3636363624,4200.54545413,0.0,4839.84848436,8.2424242416,4513.24242379,3775.03030265,42.0,42.0,?
2017-06-01 17:47:06.135449,4536.93939349,8.2424242416,4330.87878745,12.3636363624,3912.06060567,12.3636363624,3866.21212083,131.878787866,4306.66666624,243.151515127,4526.12121167,3688.48484812,4246.39393897,3041.45454515,4371.06060562,1664.9696968,4907.84848436,2930.18181789,4185.09090867,3993.45454506,4423.09090865,12.3636363624,4202.09090867,0.0,4837.27272679,8.2424242416,4514.27272682,3775.03030265,42.0,42.0,?
2017-06-01 17:47:06.142716,4537.96969652,8.2424242416,4328.81818139,12.3636363624,3911.54545415,12.3636363624,3873.93939355,131.878787866,4305.12121169,243.151515127,4526.12121167,3688.48484812,4265.96969654,3041.45454515,4382.39393896,1664.9696968,4920.21212072,2930.18181789,4196.93939352,3993.45454506,4429.78787834,12.3636363624,4201.57575716,0.0,4841.39393891,8.2424242416,4517.36363591,3775.03030265,42.0,42.0,?
2017-06-01 17:47:06.152725,4543.63636318,8.2424242416,4327.27272684,12.3636363624,3913.60606021,12.3636363624,3869.30302992,131.878787866,4303.57575715,243.151515127,4521.99999955,3688.48484812,4269.57575715,3041.45454515,4381.87878744,1664.9696968,4922.27272678,2930.18181789,4198.48484806,3993.45454506,4426.69696925,12.3636363624,4200.03030261,0.0,4835.21212073,8.2424242416,4525.09090864,3775.03030265,42.0,42.0,?
2017-06-01 17:47:06.159335,4542.09090864,8.2424242416,4326.75757532,12.3636363624,3914.63636324,12.3636363624,3864.66666628,131.878787866,4299.45454502,243.151515127,4515.30302985,3688.48484812,4264.424242,3041.45454515,4377.2424238,1664.9696968,4921.75757527,2930.18181789,4194.87878746,3993.45454506,4426.69696925,12.3636363624,4199.5151511,0.0,4836.75757527,8.2424242416,4528.69696924,3775.03030265,42.0,42.0,?
2017-06-01 17:47:06.165724,4538.48484803,8.2424242416,4327.78787836,12.3636363624,3913.60606021,12.3636363624,3867.75757537,131.878787866,4293.27272684,243.151515127,4513.24242379,3688.48484812,4255.15151473,3041.45454515,4377.2424238,1664.9696968,4920.72727224,2930.18181789,4191.27272685,3993.45454506,4429.27272683,12.3636363624,4197.96969655,0.0,4840.87878739,8.2424242416,4528.69696924,3775.03030265,42.0,42.0,?
2017-06-01 17:47:06.183779,4540.54545409,8.2424242416,4327.78787836,12.3636363624,3913.0909087,12.3636363624,3868.27272689,131.878787866,4290.18181775,243.151515127,4516.33333288,3688.48484812,4241.75757533,3041.45454515,4378.27272683,1664.9696968,4915.06060557,2930.18181789,4188.69696928,3993.45454506,4431.33333289,12.3636363624,4200.03030261,0.0,4836.75757527,8.2424242416,4528.69696924,3775.03030265,42.0,42.0,?
2017-06-01 17:47:06.192306,4541.06060561,8.2424242416,4327.27272684,12.3636363624,3912.06060567,12.3636363624,3864.15151477,131.878787866,4291.7272723,243.151515127,4512.21212076,3688.48484812,4219.60606018,3041.45454515,4372.60606017,1664.9696968,4908.87878739,2930.18181789,4194.36363594,3993.45454506,4433.39393895,12.3636363624,4204.66666625,0.0,4842.93939346,8.2424242416,4528.69696924,3775.03030265,42.0,42.0,?
2017-06-01 17:47:06.197797,4543.12121167,8.2424242416,4330.87878745,12.3636363624,3913.60606021,12.3636363624,3860.54545416,131.878787866,4291.21212078,243.151515127,4509.12121167,3688.48484812,4194.36363594,3041.45454515,4359.72727229,1664.9696968,4904.24242375,2930.18181789,4196.424242,3993.45454506,4426.69696925,12.3636363624,4201.57575716,0.0,4841.39393891,8.2424242416,4525.09090864,3775.03030265,42.0,42.0,?
2017-06-01 17:47:06.202061,4541.06060561,8.2424242416,4331.39393896,12.3636363624,3914.63636324,12.3636363624,3858.99999961,131.878787866,4290.18181775,243.151515127,4515.30302985,3688.48484812,4183.03030261,3041.45454515,4353.03030259,1664.9696968,4901.15151466,2930.18181789,4193.33333291,3993.45454506,4428.75757531,12.3636363624,4199.5151511,0.0,4840.36363588,8.2424242416,4521.99999955,3775.03030265,42.0,42.0,?
2017-06-01 17:47:06.205239,4540.03030258,8.2424242416,4327.27272684,12.3636363624,3912.06060567,12.3636363624,3858.4848481,131.878787866,4294.30302987,243.151515127,4520.96969652,3688.48484812,4194.87878746,3041.45454515,4356.12121169,1664.9696968,4901.66666618,2930.18181789,4190.75757534,3993.45454506,4430.30302986,12.3636363624,4203.1212117,0.0,4840.87878739,8.2424242416,4523.54545409,3775.03030265,42.0,42.0,?
2017-06-01 17:47:06.212703,4543.12121167,8.2424242416,4326.75757532,12.3636363624,3909.99999961,12.3636363624,3861.06060567,131.878787866,4297.39393896,243.151515127,4519.93939349,3688.48484812,4220.63636321,3041.45454515,4362.81818138,1664.9696968,4904.24242375,2930.18181789,4186.63636322,3993.45454506,4422.57575713,12.3636363624,4203.1212117,0.0,4836.75757527,8.2424242416,4523.03030258,3775.03030265,42.0,42.0,?
2017-06-01 17:47:06.222957,4541.57575712,8.2424242416,4331.39393896,12.3636363624,3910.51515112,12.3636363624,3863.63636325,131.878787866,4296.36363593,243.151515127,4519.93939349,3688.48484812,4244.84848442,3041.45454515,4367.45454502,1664.9696968,4906.30302981,2930.18181789,4187.15151473,3993.45454506,4428.75757531,12.3636363624,4203.1212117,0.0,4840.36363588,8.2424242416,4519.93939349,3775.03030265,42.0,42.0,?
2017-06-01 17:47:06.229591,4540.54545409,8.2424242416,4331.90909048,12.3636363624,3912.06060567,12.3636363624,3860.54545416,131.878787866,4293.78787836,243.151515127,4522.51515106,3688.48484812,4248.96969654,3041.45454515,4365.90909047,1664.9696968,4899.60606012,2930.18181789,4184.57575716,3993.45454506,4428.2424238,12.3636363624,4202.60606019,0.0,4838.30302982,8.2424242416,4518.90909046,3775.03030265,42.0,42.0,?
2017-06-01 17:47:06.238168,4540.03030258,8.2424242416,4327.78787836,12.3636363624,3911.54545415,12.3636363624,3858.4848481,131.878787866,4293.78787836,243.151515127,4519.93939349,3688.48484812,4239.18181776,3041.45454515,4360.75757532,1664.9696968,4897.03030254,2930.18181789,4175.30302989,3993.45454506,4425.66666622,12.3636363624,4200.54545413,0.0,4838.30302982,8.2424242416,4515.81818137,3783.27272689,42.0,42.0,?
2017-06-01 17:47:06.245638,4540.03030258,8.2424242416,4327.27272684,12.3636363624,3912.57575718,12.3636363624,3860.54545416,131.878787866,4293.78787836,243.151515127,4516.33333288,3688.48484812,4237.63636321,3041.45454515,4367.45454502,1664.9696968,4906.30302981,2930.18181789,4177.87878746,3993.45454506,4427.72727228,12.3636363624,4201.06060564,0.0,4840.87878739,8.2424242416,4513.75757531,3783.27272689,42.0,42.0,?
2017-06-01 17:47:06.251742,4542.09090864,8.2424242416,4328.30302987,12.3636363624,3914.12121173,12.3636363624,3857.96969658,144.242424228,4287.60606018,243.151515127,4514.27272682,3688.48484812,4239.69696927,3041.45454515,4375.18181774,1664.9696968,4908.36363587,2930.18181789,4187.66666625,3993.45454506,4424.63636319,12.3636363624,4201.06060564,0.0,4834.69696921,8.2424242416,4515.30302985,3783.27272689,42.0,42.0,?
2017-06-01 17:47:06.262115,4541.06060561,8.2424242416,4326.75757532,12.3636363624,3913.60606021,12.3636363624,3857.96969658,144.242424228,4283.99999957,239.030303006,4513.75757531,3688.48484812,4233.51515109,3041.45454515,4371.57575714,1664.9696968,4900.63636315,2930.18181789,4188.18181776,3993.45454506,4427.72727228,12.3636363624,4202.60606019,0.0,4840.36363588,8.2424242416,4516.33333288,3783.27272689,42.0,42.0,?
2017-06-01 17:47:06.270584,4540.54545409,8.2424242416,4330.36363593,12.3636363624,3915.15151476,12.3636363624,3863.63636325,144.242424228,4287.09090866,239.030303006,4514.78787834,3676.12121175,4224.24242382,3041.45454515,4368.99999956,1664.9696968,4900.63636315,2930.18181789,4184.06060564,3993.45454506,4424.63636319,12.3636363624,4201.57575716,0.0,4842.42424194,8.2424242416,4517.36363591,3783.27272689,42.0,42.0,?
2017-06-01 17:47:06.279933,4542.09090864,8.2424242416,4332.93939351,12.3636363624,3914.12121173,12.3636363624,3866.72727234,144.242424228,4292.75757533,239.030303006,4516.33333288,3676.12121175,4218.06060564,3045.57575727,4374.66666623,1664.9696968,4915.06060557,2930.18181789,4192.30302988,3993.45454506,4426.18181774,12.3636363624,4198.48484806,0.0,4839.33333285,8.2424242416,4516.8484844,3783.27272689,42.0,42.0,?
2017-06-01 17:47:06.283660,4542.60606015,8.2424242416,4329.84848442,12.3636363624,3911.03030264,12.3636363624,3866.72727234,144.242424228,4297.90909048,239.030303006,4519.42424197,3676.12121175,4208.27272685,3045.57575727,4371.57575714,1669.09090892,4922.27272678,2930.18181789,4202.09090867,3993.45454506,4432.87878744,12.3636363624,4199.5151511,0.0,4841.39393891,8.2424242416,4514.78787834,3783.27272689,42.0,42.0,?
2017-06-01 17:47:06.291649,4542.09090864,8.2424242416,4331.39393896,12.3636363624,3915.15151476,12.3636363624,3865.1818178,144.242424228,4297.39393896,239.030303006,4521.48484803,3676.12121175,4203.63636322,3045.57575727,4358.69696926,1669.09090892,4904.75757527,2921.93939365,4189.72727231,3993.45454506,4426.69696925,12.3636363624,4201.06060564,0.0,4837.27272679,8.2424242416,4515.30302985,3783.27272689,42.0,42.0,?
2017-06-01 17:47:06.302264,4539.51515106,8.2424242416,4330.87878745,12.3636363624,3914.63636324,12.3636363624,3863.12121173,144.242424228,4297.90909048,239.030303006,4519.42424197,3676.12121175,4226.8181814,3045.57575727,4360.75757532,1669.09090892,4901.15151466,2921.93939365,4176.84848443,3993.45454506,4428.2424238,12.3636363624,4202.09090867,0.0,4842.42424194,8.2424242416,4518.90909046,3783.27272689,42.0,42.0,?
2017-06-01 17:47:06.314704,4542.09090864,8.2424242416,4329.84848442,12.3636363624,3913.0909087,12.3636363624,3865.1818178,144.242424228,4302.0303026,239.030303006,4519.93939349,3676.12121175,4255.15151473,3045.57575727,4381.36363593,1669.09090892,4923.30302981,2921.93939365,4185.09090867,3993.45454506,4427.72727228,8.2424242416,4201.06060564,0.0,4842.93939346,8.2424242416,4519.93939349,3783.27272689,42.0,42.0,?
2017-06-01 17:47:06.319850,4543.63636318,8.2424242416,4331.39393896,12.3636363624,3915.15151476,12.3636363624,3871.87878749,144.242424228,4302.0303026,239.030303006,4521.99999955,3676.12121175,4261.33333291,3045.57575727,4393.72727229,1669.09090892,4931.54545405,2921.93939365,4198.48484806,3993.45454506,4426.69696925,8.2424242416,4200.54545413,8.2424242416,4838.81818133,8.2424242416,4523.03030258,3783.27272689,42.0,42.0,?
2017-06-01 17:47:06.322809,4541.57575712,8.2424242416,4328.81818139,12.3636363624,3914.12121173,12.3636363624,3875.4848481,144.242424228,4297.90909048,239.030303006,4518.90909046,3676.12121175,4261.33333291,3045.57575727,4393.21212077,1669.09090892,4927.42424193,2921.93939365,4205.69696928,3993.45454506,4430.30302986,8.2424242416,4203.1212117,8.2424242416,4841.90909042,0.0,4529.72727227,3783.27272689,42.0,42.0,?
2017-06-01 17:47:06.332482,4543.12121167,8.2424242416,4328.30302987,12.3636363624,3913.60606021,12.3636363624,3873.42424204,144.242424228,4296.87878745,239.030303006,4516.33333288,3676.12121175,4261.84848442,3045.57575727,4391.66666623,1669.09090892,4935.15151466,2921.93939365,4210.84848443,4001.6969693,4426.18181774,8.2424242416,4201.06060564,8.2424242416,4836.24242376,0.0,4532.81818136,3783.27272689,42.0,42.0,?
2017-06-01 17:47:06.338775,4541.57575712,8.2424242416,4330.36363593,12.3636363624,3913.0909087,12.3636363624,3872.90909052,144.242424228,4299.96969654,239.030303006,4516.8484844,3676.12121175,4245.87878745,3045.57575727,4389.09090865,1669.09090892,4939.27272678,2921.93939365,4210.84848443,4001.6969693,4428.2424238,0.0,4198.99999958,8.2424242416,4839.33333285,0.0,4528.69696924,3783.27272689,42.0,42.0,?
2017-06-01 17:47:06.347247,4540.03030258,8.2424242416,4331.39393896,12.3636363624,3913.0909087,12.3636363624,3873.93939355,144.242424228,4300.48484805,239.030303006,4520.454545,3676.12121175,4221.66666624,3045.57575727,4378.27272683,1669.09090892,4928.45454496,2921.93939365,4201.06060564,4001.6969693,4427.21212077,0.0,4199.5151511,8.2424242416,4841.90909042,0.0,4525.60606015,3783.27272689,42.0,42.0,?
2017-06-01 17:47:06.358349,4540.03030258,8.2424242416,4330.36363593,12.3636363624,3912.06060567,12.3636363624,3872.39393901,144.242424228,4300.48484805,239.030303006,4523.03030258,3676.12121175,4210.33333291,3045.57575727,4370.54545411,1669.09090892,4920.21212072,2921.93939365,4188.69696928,4001.6969693,4424.63636319,0.0,4198.99999958,8.2424242416,4836.75757527,0.0,4524.06060561,3783.27272689,42.0,42.0,?
2017-06-01 17:47:06.365142,4538.99999955,8.2424242416,4330.36363593,12.3636363624,3913.0909087,12.3636363624,3871.36363598,144.242424228,4305.63636321,239.030303006,4520.96969652,3676.12121175,4215.99999958,3045.57575727,4376.21212077,1669.09090892,4924.84848436,2921.93939365,4186.1212117,4001.6969693,4429.27272683,0.0,4201.57575716,8.2424242416,4841.90909042,0.0,4520.454545,3783.27272689,42.0,42.0,?
2017-06-01 17:47:06.372242,4540.54545409,8.2424242416,4330.36363593,12.3636363624,3915.15151476,12.3636363624,3870.84848446,144.242424228,4309.24242381,239.030303006,4525.60606015,3676.12121175,4221.15151473,3045.57575727,4377.2424238,1669.09090892,4926.3939389,2921.93939365,4189.21212079,4001.6969693,4425.66666622,0.0,4200.54545413,8.2424242416,4837.7878783,0.0,4516.33333288,3783.27272689,42.0,42.0,?
2017-06-01 17:47:06.377336,4541.57575712,8.2424242416,4329.3333329,12.3636363624,3914.12121173,12.3636363624,3871.36363598,144.242424228,4308.7272723,239.030303006,4529.21212076,3676.12121175,4215.48484806,3045.57575727,4369.51515108,1669.09090892,4920.21212072,2921.93939365,4193.84848443,4001.6969693,4428.2424238,0.0,4197.96969655,8.2424242416,4838.30302982,0.0,4514.27272682,3783.27272689,42.0,42.0,?
2017-06-01 17:47:06.384773,4540.54545409,8.2424242416,4330.36363593,12.3636363624,3912.06060567,12.3636363624,3872.90909052,144.242424228,4306.66666624,239.030303006,4523.54545409,3676.12121175,4221.15151473,3045.57575727,4368.99999956,1669.09090892,4923.30302981,2921.93939365,4196.93939352,4001.6969693,4428.2424238,0.0,4196.93939352,8.2424242416,4842.42424194,0.0,4513.24242379,3783.27272689,42.0,42.0,?
2017-06-01 17:47:06.393489,4539.51515106,8.2424242416,4328.30302987,12.3636363624,3911.54545415,12.3636363624,3873.42424204,144.242424228,4307.69696927,239.030303006,4518.90909046,3676.12121175,4245.87878745,3045.57575727,4379.30302987,1669.09090892,4936.18181769,2921.93939365,4190.75757534,4001.6969693,4426.18181774,0.0,4199.5151511,8.2424242416,4838.30302982,0.0,4514.78787834,3783.27272689,42.0,42.0,?
2017-06-01 17:47:06.401304,4538.99999955,8.2424242416,4324.69696926,12.3636363624,3912.06060567,12.3636363624,3873.42424204,144.242424228,4308.21212078,239.030303006,4518.39393894,3676.12121175,4264.93939351,3045.57575727,4389.60606017,1669.09090892,4936.18181769,2921.93939365,4184.06060564,4001.6969693,4433.39393895,0.0,4201.06060564,8.2424242416,4842.42424194,0.0,4514.27272682,3783.27272689,42.0,42.0,?
2017-06-01 17:47:06.408761,4542.60606015,8.2424242416,4329.84848442,12.3636363624,3914.63636324,12.3636363624,3875.99999961,144.242424228,4304.60606018,239.030303006,4517.36363591,3676.12121175,4262.36363594,3045.57575727,4390.6363632,1669.09090892,4929.99999951,2921.93939365,4187.15151473,4001.6969693,4424.12121168,0.0,4198.48484806,8.2424242416,4839.33333285,0.0,4509.12121167,3783.27272689,42.0,42.0,?
2017-06-01 17:47:06.418548,4541.06060561,8.2424242416,4332.93939351,12.3636363624,3913.0909087,12.3636363624,3879.0909087,144.242424228,4303.57575715,239.030303006,4510.1515147,3676.12121175,4255.66666624,3045.57575727,4388.06060562,1669.09090892,4936.6969692,2921.93939365,4191.78787837,4001.6969693,4420.51515107,0.0,4200.54545413,8.2424242416,4836.75757527,0.0,4512.21212076,3783.27272689,42.0,42.0,?
2017-06-01 17:47:06.424578,4540.03030258,8.2424242416,4328.81818139,12.3636363624,3911.03030264,12.3636363624,3877.54545416,144.242424228,4304.60606018,239.030303006,4507.57575713,3676.12121175,4243.81818139,3045.57575727,4383.9393935,1669.09090892,4934.63636314,2921.93939365,4186.63636322,4001.6969693,4428.75757531,0.0,4202.60606019,8.2424242416,4839.84848436,0.0,4515.81818137,3783.27272689,42.0,42.0,?
2017-06-01 17:47:06.432560,4544.1515147,8.2424242416,4325.21212078,12.3636363624,3913.0909087,12.3636363624,3872.39393901,144.242424228,4303.57575715,239.030303006,4514.27272682,3676.12121175,4217.54545412,3045.57575727,4374.15151471,1669.09090892,4918.66666617,2921.93939365,4183.03030261,4001.6969693,4426.69696925,0.0,4199.5151511,8.2424242416,4836.75757527,0.0,4508.09090864,3783.27272689,42.0,42.0,?
2017-06-01 17:47:06.440342,4542.60606015,8.2424242416,4326.75757532,12.3636363624,3913.0909087,12.3636363624,3876.51515113,144.242424228,4304.09090866,239.030303006,4519.93939349,3676.12121175,4201.57575716,3045.57575727,4370.54545411,1669.09090892,4923.81818133,2921.93939365,4192.8181814,4001.6969693,4428.2424238,0.0,4201.57575716,8.2424242416,4840.87878739,0.0,4506.03030258,3783.27272689,42.0,42.0,?
2017-06-01 17:47:06.449407,4540.54545409,8.2424242416,4329.84848442,12.3636363624,3913.0909087,12.3636363624,3885.27272688,144.242424228,4307.18181775,239.030303006,4520.96969652,3676.12121175,4207.24242382,3045.57575727,4375.18181774,1669.09090892,4935.15151466,2921.93939365,4192.8181814,4001.6969693,4427.21212077,0.0,4202.09090867,8.2424242416,4839.84848436,0.0,4510.1515147,3783.27272689,42.0,42.0,?
2017-06-01 17:47:06.455846,4541.06060561,8.2424242416,4329.84848442,12.3636363624,3912.57575718,12.3636363624,3883.72727234,144.242424228,4308.21212078,239.030303006,4521.48484803,3676.12121175,4220.1212117,3045.57575727,4378.27272683,1669.09090892,4928.45454496,2921.93939365,4184.57575716,4001.6969693,4428.75757531,0.0,4198.99999958,8.2424242416,4838.81818133,0.0,4507.57575713,3783.27272689,42.0,42.0,?
2017-06-01 17:47:06.463716,4540.54545409,8.2424242416,4328.30302987,12.3636363624,3912.06060567,12.3636363624,3882.69696931,144.242424228,4308.21212078,239.030303006,4521.48484803,3676.12121175,4233.51515109,3045.57575727,4383.42424199,1669.09090892,4928.45454496,2921.93939365,4192.30302988,4001.6969693,4428.75757531,0.0,4198.99999958,8.2424242416,4842.93939346,0.0,4507.06060561,3783.27272689,42.0,42.0,?
2017-06-01 17:47:06.471315,4540.03030258,8.2424242416,4328.81818139,12.3636363624,3914.12121173,12.3636363624,3884.24242385,144.242424228,4308.21212078,239.030303006,4518.90909046,3676.12121175,4249.99999958,3045.57575727,4393.21212077,1669.09090892,4941.33333284,2921.93939365,4201.06060564,4001.6969693,4423.09090865,0.0,4200.54545413,8.2424242416,4839.84848436,0.0,4507.06060561,3783.27272689,42.0,42.0,?
2017-06-01 17:47:06.479245,4537.96969652,8.2424242416,4330.36363593,12.3636363624,3915.66666628,12.3636363624,3882.18181779,144.242424228,4306.66666624,239.030303006,4514.27272682,3676.12121175,4263.39393897,3045.57575727,4396.81818138,1669.09090892,4941.33333284,2921.93939365,4192.30302988,4001.6969693,4429.78787834,0.0,4204.15151473,8.2424242416,4842.42424194,0.0,4501.90909046,3783.27272689,42.0,42.0,?
2017-06-01 17:47:06.487007,4540.03030258,8.2424242416,4330.36363593,12.3636363624,3916.18181779,12.3636363624,3881.66666628,144.242424228,4303.57575715,239.030303006,4514.78787834,3676.12121175,4259.78787836,3045.57575727,4387.03030259,1669.09090892,4931.54545405,2921.93939365,4183.03030261,4001.6969693,4428.75757531,0.0,4205.69696928,8.2424242416,4838.81818133,0.0,4503.96969652,3783.27272689,42.0,42.0,?
2017-06-01 17:47:06.496831,4543.12121167,8.2424242416,4328.81818139,12.3636363624,3914.12121173,12.3636363624,3885.7878784,144.242424228,4305.12121169,239.030303006,4517.36363591,3676.12121175,4248.96969654,3045.57575727,4380.3333329,1669.09090892,4930.51515102,2921.93939365,4186.63636322,4001.6969693,4425.15151471,0.0,4203.1212117,8.2424242416,4837.7878783,0.0,4504.99999955,3783.27272689,42.0,42.0,?
2017-06-01 17:47:06.503996,4542.60606015,8.2424242416,4329.3333329,12.3636363624,3913.60606021,12.3636363624,3885.7878784,144.242424228,4309.24242381,239.030303006,4515.81818137,3676.12121175,4244.84848442,3045.57575727,4385.48484805,1669.09090892,4938.24242375,2921.93939365,4189.72727231,4001.6969693,4429.78787834,0.0,4201.57575716,8.2424242416,4844.484848,0.0,4500.87878743,3783.27272689,42.0,42.0,?
2017-06-01 17:47:06.511243,4540.03030258,8.2424242416,4329.3333329,12.3636363624,3916.18181779,12.3636363624,3883.72727234,144.242424228,4308.7272723,239.030303006,4514.78787834,3676.12121175,4239.18181776,3045.57575727,4387.54545411,1669.09090892,4942.36363587,2921.93939365,4189.21212079,4001.6969693,4427.21212077,0.0,4201.06060564,8.2424242416,4836.75757527,0.0,4501.90909046,3783.27272689,42.0,42.0,?
2017-06-01 17:47:06.520653,4537.96969652,8.2424242416,4327.78787836,12.3636363624,3913.60606021,12.3636363624,3889.393939,144.242424228,4304.60606018,239.030303006,4514.27272682,3676.12121175,4229.39393897,3045.57575727,4386.51515108,1669.09090892,4943.90909041,2921.93939365,4193.84848443,4001.6969693,4430.30302986,0.0,4202.09090867,8.2424242416,4837.7878783,0.0,4512.21212076,3783.27272689,42.0,42.0,?
2017-06-01 17:47:06.526235,4542.60606015,8.2424242416,4329.84848442,12.3636363624,3912.57575718,12.3636363624,3888.87878749,144.242424228,4300.99999957,239.030303006,4514.27272682,3676.12121175,4220.63636321,3045.57575727,4380.3333329,1669.09090892,4937.21212072,2921.93939365,4192.30302988,4001.6969693,4429.27272683,0.0,4200.54545413,8.2424242416,4839.84848436,0.0,4518.39393894,3783.27272689,42.0,42.0,?
2017-06-01 17:47:06.533798,4544.1515147,8.2424242416,4332.93939351,12.3636363624,3915.66666628,12.3636363624,3880.12121173,144.242424228,4298.42424199,239.030303006,4516.33333288,3676.12121175,4212.39393897,3045.57575727,4367.96969653,1669.09090892,4925.36363587,2921.93939365,4187.15151473,4001.6969693,4427.21212077,0.0,4199.5151511,8.2424242416,4836.75757527,0.0,4514.27272682,3783.27272689,42.0,42.0,?
2017-06-01 17:47:06.544837,4540.54545409,8.2424242416,4329.84848442,12.3636363624,3915.66666628,12.3636363624,3881.15151476,144.242424228,4302.0303026,239.030303006,4517.36363591,3676.12121175,4212.90909049,3045.57575727,4367.45454502,1669.09090892,4927.42424193,2921.93939365,4191.27272685,4001.6969693,4430.30302986,0.0,4200.54545413,8.2424242416,4841.39393891,0.0,4510.1515147,3783.27272689,42.0,42.0,?
2017-06-01 17:47:06.550281,4542.09090864,8.2424242416,4327.27272684,12.3636363624,3913.0909087,12.3636363624,3883.21212082,144.242424228,4304.60606018,239.030303006,4520.454545,3676.12121175,4223.21212079,3045.57575727,4374.66666623,1669.09090892,4936.6969692,2921.93939365,4194.87878746,4001.6969693,4424.63636319,0.0,4199.5151511,8.2424242416,4839.33333285,0.0,4508.60606016,3783.27272689,42.0,42.0,?
2017-06-01 17:47:06.559015,4540.54545409,8.2424242416,4329.84848442,12.3636363624,3910.51515112,12.3636363624,3880.12121173,144.242424228,4304.60606018,239.030303006,4525.09090864,3676.12121175,4231.96969655,3045.57575727,4374.15151471,1669.09090892,4940.30302981,2921.93939365,4189.21212079,4001.6969693,4425.66666622,0.0,4201.57575716,8.2424242416,4839.84848436,0.0,4506.03030258,3783.27272689,42.0,42.0,?
2017-06-01 17:47:06.565908,4540.54545409,8.2424242416,4332.42424199,12.3636363624,3912.57575718,12.3636363624,3878.57575719,144.242424228,4305.12121169,239.030303006,4526.63636318,3676.12121175,4236.60606018,3045.57575727,4370.54545411,1669.09090892,4938.75757526,2921.93939365,4181.48484807,4001.6969693,4427.21212077,0.0,4202.09090867,8.2424242416,4840.36363588,0.0,4502.42424197,3783.27272689,42.0,42.0,?
2017-06-01 17:47:06.593667,4544.1515147,8.2424242416,4332.42424199,12.3636363624,3914.63636324,12.3636363624,3879.60606022,144.242424228,4305.12121169,239.030303006,4522.51515106,3676.12121175,4241.75757533,3045.57575727,4375.69696926,1669.09090892,4934.63636314,2921.93939365,4179.93939352,4001.6969693,4423.60606016,0.0,4200.03030261,8.2424242416,4838.30302982,0.0,4501.90909046,3783.27272689,42.0,42.0,?
2017-06-01 17:47:06.599781,4540.03030258,8.2424242416,4330.36363593,12.3636363624,3912.06060567,12.3636363624,3878.06060567,144.242424228,4303.57575715,239.030303006,4520.96969652,3676.12121175,4245.87878745,3045.57575727,4383.42424199,1669.09090892,4938.75757526,2921.93939365,4188.18181776,4001.6969693,4427.21212077,0.0,4201.57575716,8.2424242416,4846.03030255,0.0,4504.99999955,3783.27272689,42.0,42.0,?
2017-06-01 17:47:06.602883,4540.03030258,8.2424242416,4330.36363593,12.3636363624,3912.57575718,12.3636363624,3874.96969658,144.242424228,4303.57575715,239.030303006,4524.57575712,3676.12121175,4241.24242382,3045.57575727,4383.9393935,1669.09090892,4948.54545405,2921.93939365,4198.48484806,4001.6969693,4425.66666622,0.0,4202.09090867,8.2424242416,4841.90909042,0.0,4505.51515106,3783.27272689,42.0,42.0,?
2017-06-01 17:47:06.605726,4542.60606015,8.2424242416,4329.84848442,12.3636363624,3915.15151476,12.3636363624,3877.03030264,144.242424228,4305.63636321,239.030303006,4523.03030258,3676.12121175,4234.03030261,3045.57575727,4380.84848441,1669.09090892,4949.06060557,2921.93939365,4201.06060564,4001.6969693,4427.21212077,0.0,4201.57575716,8.2424242416,4839.33333285,0.0,4503.96969652,3783.27272689,42.0,42.0,?
2017-06-01 17:47:06.608655,4541.57575712,8.2424242416,4329.3333329,12.3636363624,3914.12121173,12.3636363624,3878.06060567,144.242424228,4307.18181775,239.030303006,4517.36363591,3676.12121175,4229.90909049,3045.57575727,4376.21212077,1669.09090892,4941.84848435,2921.93939365,4194.87878746,4001.6969693,4427.72727228,0.0,4200.54545413,8.2424242416,4841.39393891,0.0,4503.454545,3783.27272689,42.0,42.0,?
2017-06-01 17:47:06.617246,4540.54545409,8.2424242416,4327.27272684,12.3636363624,3912.06060567,12.3636363624,3874.45454507,144.242424228,4306.15151472,239.030303006,4519.42424197,3676.12121175,4227.33333291,3045.57575727,4374.66666623,1669.09090892,4942.87878738,2921.93939365,4187.66666625,4001.6969693,4424.12121168,0.0,4199.5151511,8.2424242416,4837.7878783,0.0,4502.42424197,3783.27272689,42.0,42.0,?
2017-06-01 17:47:06.621555,4541.06060561,8.2424242416,4324.18181775,12.3636363624,3911.54545415,12.3636363624,3873.42424204,144.242424228,4307.18181775,239.030303006,4522.51515106,3676.12121175,4228.87878746,3045.57575727,4377.75757532,1669.09090892,4945.45454496,2921.93939365,4188.18181776,4001.6969693,4429.27272683,0.0,4202.60606019,8.2424242416,4842.42424194,0.0,4501.90909046,3783.27272689,42.0,42.0,?
2017-06-01 17:47:06.633254,4543.12121167,8.2424242416,4329.3333329,12.3636363624,3915.15151476,12.3636363624,3874.45454507,144.242424228,4306.15151472,239.030303006,4521.48484803,3676.12121175,4231.45454503,3045.57575727,4379.30302987,1669.09090892,4941.84848435,2921.93939365,4190.75757534,4001.6969693,4426.18181774,0.0,4201.57575716,8.2424242416,4839.84848436,0.0,4504.48484803,3783.27272689,42.0,42.0,?
2017-06-01 17:47:06.641217,4541.57575712,8.2424242416,4332.93939351,12.3636363624,3916.18181779,12.3636363624,3876.51515113,144.242424228,4306.66666624,239.030303006,4523.03030258,3676.12121175,4239.18181776,3045.57575727,4379.81818138,1669.09090892,4942.36363587,2921.93939365,4192.8181814,4001.6969693,4427.21212077,0.0,4197.96969655,8.2424242416,4837.7878783,0.0,4507.06060561,3783.27272689,42.0,42.0,?
2017-06-01 17:47:06.648489,4541.06060561,8.2424242416,4327.27272684,12.3636363624,3912.57575718,12.3636363624,3874.45454507,144.242424228,4309.75757533,239.030303006,4527.66666621,3676.12121175,4253.09090867,3045.57575727,4380.84848441,1669.09090892,4944.93939344,2921.93939365,4189.72727231,4001.6969693,4429.27272683,0.0,4199.5151511,8.2424242416,4841.90909042,0.0,4498.30302985,3783.27272689,42.0,42.0,?
2017-06-01 17:47:06.653689,4542.60606015,8.2424242416,4326.75757532,12.3636363624,3912.06060567,12.3636363624,3871.87878749,144.242424228,4307.18181775,239.030303006,4529.72727227,3676.12121175,4257.21212079,3045.57575727,4375.69696926,1669.09090892,4937.72727223,2921.93939365,4176.84848443,4001.6969693,4423.60606016,0.0,4202.60606019,8.2424242416,4837.27272679,0.0,4490.57575713,3783.27272689,42.0,42.0,?
2017-06-01 17:47:06.659369,4541.57575712,8.2424242416,4331.90909048,12.3636363624,3913.0909087,12.3636363624,3872.39393901,144.242424228,4303.06060563,239.030303006,4528.69696924,3676.12121175,4252.06060564,3045.57575727,4375.18181774,1669.09090892,4929.99999951,2921.93939365,4170.15151473,4001.6969693,4428.75757531,0.0,4204.15151473,8.2424242416,4840.36363588,0.0,4495.72727228,3783.27272689,42.0,42.0,?
2017-06-01 17:47:06.668879,4541.06060561,8.2424242416,4330.87878745,12.3636363624,3914.12121173,12.3636363624,3870.33333295,144.242424228,4304.60606018,239.030303006,4527.66666621,3676.12121175,4252.06060564,3045.57575727,4379.81818138,1669.09090892,4933.0909086,2921.93939365,4175.8181814,4001.6969693,4427.21212077,0.0,4202.09090867,8.2424242416,4839.84848436,0.0,4500.87878743,3783.27272689,42.0,42.0,?
2017-06-01 17:47:06.675264,4539.51515106,8.2424242416,4325.21212078,12.3636363624,3914.12121173,12.3636363624,3864.15151477,144.242424228,4301.51515109,239.030303006,4523.03030258,3676.12121175,4249.48484806,3045.57575727,4376.72727229,1669.09090892,4936.6969692,2921.93939365,4180.96969655,4001.6969693,4427.21212077,0.0,4199.5151511,8.2424242416,4839.84848436,0.0,4506.03030258,3783.27272689,42.0,42.0,?
2017-06-01 17:47:06.681770,4540.54545409,8.2424242416,4327.27272684,12.3636363624,3913.60606021,12.3636363624,3864.15151477,144.242424228,4295.3333329,239.030303006,4518.90909046,3676.12121175,4230.93939352,3045.57575727,4369.51515108,1669.09090892,4929.99999951,2921.93939365,4175.8181814,4001.6969693,4432.36363592,0.0,4199.5151511,8.2424242416,4842.42424194,0.0,4515.81818137,3783.27272689,42.0,42.0,?
2017-06-01 17:47:06.690838,4543.63636318,8.2424242416,4329.84848442,12.3636363624,3914.12121173,12.3636363624,3864.66666628,144.242424228,4293.78787836,239.030303006,4517.36363591,3676.12121175,4211.87878746,3045.57575727,4367.96969653,1669.09090892,4925.87878739,2921.93939365,4175.30302989,4001.6969693,4425.66666622,0.0,4198.48484806,8.2424242416,4835.21212073,0.0,4519.93939349,3783.27272689,42.0,42.0,?
2017-06-01 17:47:06.698619,4540.03030258,8.2424242416,4326.75757532,12.3636363624,3912.57575718,12.3636363624,3862.60606022,144.242424228,4292.24242381,239.030303006,4515.30302985,3676.12121175,4214.96969655,3045.57575727,4371.06060562,1669.09090892,4932.06060557,2921.93939365,4181.48484807,4001.6969693,4428.75757531,0.0,4199.5151511,8.2424242416,4841.90909042,0.0,4519.42424197,3783.27272689,42.0,42.0,?
2017-06-01 17:47:06.706562,4541.06060561,8.2424242416,4329.84848442,12.3636363624,3913.60606021,12.3636363624,3865.69696931,144.242424228,4288.63636321,239.030303006,4518.39393894,3676.12121175,4231.96969655,3045.57575727,4373.12121168,1669.09090892,4937.21212072,2921.93939365,4178.39393898,4001.6969693,4428.75757531,0.0,4200.54545413,8.2424242416,4843.96969649,0.0,4523.03030258,3783.27272689,42.0,42.0,?
2017-06-01 17:47:06.713638,4544.1515147,8.2424242416,4330.87878745,12.3636363624,3915.66666628,12.3636363624,3870.84848446,144.242424228,4291.7272723,239.030303006,4523.54545409,3676.12121175,4243.30302988,3045.57575727,4376.21212077,1669.09090892,4939.78787829,2921.93939365,4179.93939352,4001.6969693,4426.69696925,0.0,4201.57575716,8.2424242416,4835.72727224,0.0,4528.69696924,3783.27272689,42.0,42.0,?
2017-06-01 17:47:06.723473,4541.57575712,4.1212121208,4325.72727229,12.3636363624,3912.06060567,12.3636363624,3870.84848446,144.242424228,4300.48484805,239.030303006,4525.60606015,3676.12121175,4245.87878745,3045.57575727,4381.36363593,1669.09090892,4946.99999951,2921.93939365,4188.69696928,4001.6969693,4430.81818138,0.0,4202.60606019,8.2424242416,4840.36363588,0.0,4530.7575753,3783.27272689,42.0,42.0,?
2017-06-01 17:47:06.729191,4542.60606015,4.1212121208,4328.30302987,8.2424242416,3911.54545415,12.3636363624,3869.81818143,144.242424228,4303.06060563,239.030303006,4526.12121167,3676.12121175,4252.06060564,3045.57575727,4382.39393896,1669.09090892,4944.93939344,2921.93939365,4181.48484807,4001.6969693,4427.72727228,0.0,4203.1212117,8.2424242416,4838.81818133,0.0,4528.18181773,3783.27272689,42.0,42.0,?
2017-06-01 17:47:06.736782,4540.03030258,4.1212121208,4332.42424199,8.2424242416,3914.63636324,12.3636363624,3874.45454507,144.242424228,4304.09090866,239.030303006,4523.54545409,3676.12121175,4262.36363594,3045.57575727,4384.45454502,1669.09090892,4937.21212072,2921.93939365,4171.69696928,4001.6969693,4430.30302986,0.0,4203.1212117,8.2424242416,4840.36363588,0.0,4527.66666621,3779.15151477,42.0,42.0,?
2017-06-01 17:47:06.746563,4537.96969652,4.1212121208,4330.36363593,8.2424242416,3916.69696931,4.1212121208,3876.51515113,144.242424228,4306.15151472,239.030303006,4519.42424197,3676.12121175,4255.66666624,3045.57575727,4389.60606017,1669.09090892,4940.30302981,2921.93939365,4179.42424201,4001.6969693,4430.30302986,0.0,4200.54545413,8.2424242416,4841.90909042,0.0,4530.24242379,3779.15151477,42.0,42.0,?
2017-06-01 17:47:06.753723,4540.54545409,4.1212121208,4327.78787836,8.2424242416,3916.69696931,4.1212121208,3875.4848481,131.878787866,4302.54545412,239.030303006,4516.8484844,3676.12121175,4237.1212117,3045.57575727,4387.54545411,1669.09090892,4944.93939344,2921.93939365,4183.03030261,4001.6969693,4425.15151471,0.0,4198.99999958,8.2424242416,4838.30302982,0.0,4527.1515147,3779.15151477,42.0,42.0,?
2017-06-01 17:47:06.766032,4540.03030258,4.1212121208,4327.27272684,8.2424242416,3916.18181779,4.1212121208,3874.45454507,131.878787866,4302.54545412,234.909090886,4517.36363591,3676.12121175,4230.93939352,3045.57575727,4381.36363593,1669.09090892,4939.27272678,2921.93939365,4174.27272686,4001.6969693,4426.69696925,0.0,4202.60606019,8.2424242416,4839.84848436,0.0,4523.03030258,3779.15151477,42.0,42.0,?
2017-06-01 17:47:06.771353,4540.54545409,4.1212121208,4328.30302987,8.2424242416,3914.63636324,4.1212121208,3873.93939355,131.878787866,4303.57575715,234.909090886,4520.454545,3688.48484812,4228.87878746,3045.57575727,4379.30302987,1669.09090892,4933.0909086,2921.93939365,4171.69696928,4001.6969693,4424.12121168,0.0,4202.09090867,8.2424242416,4837.7878783,0.0,4521.99999955,3779.15151477,42.0,42.0,?
2017-06-01 17:47:06.775878,4542.09090864,4.1212121208,4330.36363593,8.2424242416,3910.51515112,4.1212121208,3876.51515113,131.878787866,4300.48484805,234.909090886,4517.87878743,3688.48484812,4223.21212079,3041.45454515,4381.36363593,1669.09090892,4938.24242375,2921.93939365,4182.5151511,4001.6969693,4429.27272683,0.0,4199.5151511,8.2424242416,4841.90909042,0.0,4525.60606015,3779.15151477,42.0,42.0,?
2017-06-01 17:47:06.784065,4543.12121167,4.1212121208,4331.39393896,8.2424242416,3912.06060567,4.1212121208,3877.03030264,131.878787866,4298.42424199,234.909090886,4514.78787834,3688.48484812,4229.39393897,3041.45454515,4383.9393935,1664.9696968,4947.51515102,2921.93939365,4186.63636322,4001.6969693,4431.33333289,0.0,4201.06060564,8.2424242416,4842.93939346,0.0,4528.69696924,3779.15151477,42.0,42.0,?
2017-06-01 17:47:06.793456,4543.12121167,4.1212121208,4329.84848442,8.2424242416,3915.66666628,4.1212121208,3872.90909052,131.878787866,4300.99999957,234.909090886,4519.42424197,3688.48484812,4242.27272685,3041.45454515,4383.9393935,1664.9696968,4946.99999951,2921.93939365,4175.8181814,4001.6969693,4425.66666622,0.0,4202.60606019,8.2424242416,4834.69696921,0.0,4521.48484803,3779.15151477,42.0,42.0,?
2017-06-01 17:47:06.799656,4541.57575712,4.1212121208,4327.27272684,8.2424242416,3913.60606021,4.1212121208,3873.42424204,131.878787866,4301.51515109,234.909090886,4521.48484803,3688.48484812,4245.87878745,3041.45454515,4381.36363593,1664.9696968,4941.33333284,2921.93939365,4173.75757534,3993.45454506,4430.30302986,0.0,4202.60606019,8.2424242416,4841.39393891,0.0,4516.8484844,3779.15151477,42.0,42.0,?
2017-06-01 17:47:06.807774,4541.57575712,4.1212121208,4329.84848442,8.2424242416,3913.0909087,4.1212121208,3874.45454507,131.878787866,4299.45454502,234.909090886,4519.42424197,3688.48484812,4241.75757533,3041.45454515,4378.27272683,1664.9696968,4938.75757526,2921.93939365,4180.96969655,3993.45454506,4428.2424238,4.1212121208,4201.57575716,8.2424242416,4840.87878739,0.0,4521.48484803,3779.15151477,42.0,42.0,?
2017-06-01 17:47:06.816644,4541.57575712,4.1212121208,4330.87878745,8.2424242416,3913.60606021,4.1212121208,3869.30302992,131.878787866,4295.84848442,234.909090886,4519.42424197,3688.48484812,4236.09090867,3041.45454515,4376.21212077,1664.9696968,4941.84848435,2921.93939365,4176.33333292,3993.45454506,4429.27272683,4.1212121208,4200.03030261,4.1212121208,4835.21212073,0.0,4523.54545409,3779.15151477,42.0,42.0,?
2017-06-01 17:47:06.822883,4542.09090864,4.1212121208,4329.84848442,8.2424242416,3913.60606021,4.1212121208,3864.15151477,131.878787866,4293.27272684,234.909090886,4517.87878743,3688.48484812,4230.424242,3041.45454515,4374.15151471,1664.9696968,4946.99999951,2921.93939365,4172.21212079,3993.45454506,4431.84848441,4.1212121208,4200.54545413,4.1212121208,4838.30302982,8.2424242416,4518.90909046,3779.15151477,42.0,42.0,?
2017-06-01 17:47:06.831080,4543.12121167,4.1212121208,4330.87878745,8.2424242416,3913.0909087,4.1212121208,3865.1818178,131.878787866,4294.81818139,234.909090886,4516.33333288,3688.48484812,4229.39393897,3041.45454515,4376.21212077,1664.9696968,4943.3939389,2921.93939365,4174.78787837,4001.6969693,4427.21212077,4.1212121208,4202.09090867,4.1212121208,4838.30302982,8.2424242416,4516.8484844,3779.15151477,42.0,42.0,?
2017-06-01 17:47:06.838685,4541.06060561,4.1212121208,4329.3333329,8.2424242416,3911.54545415,4.1212121208,3868.27272689,131.878787866,4297.90909048,234.909090886,4517.36363591,3688.48484812,4230.424242,3041.45454515,4381.36363593,1664.9696968,4937.21212072,2921.93939365,4176.33333292,4001.6969693,4428.75757531,4.1212121208,4203.63636322,4.1212121208,4842.93939346,8.2424242416,4516.8484844,3779.15151477,42.0,42.0,?
2017-06-01 17:47:06.848652,4540.54545409,4.1212121208,4328.30302987,8.2424242416,3912.06060567,4.1212121208,3868.7878784,131.878787866,4293.78787836,234.909090886,4519.93939349,3688.48484812,4224.24242382,3041.45454515,4377.75757532,1664.9696968,4938.75757526,2921.93939365,4177.87878746,4001.6969693,4424.12121168,4.1212121208,4201.06060564,8.2424242416,4840.36363588,8.2424242416,4512.72727228,3779.15151477,42.0,42.0,?
2017-06-01 17:47:06.857132,4542.09090864,4.1212121208,4330.87878745,8.2424242416,3915.66666628,4.1212121208,3872.39393901,131.878787866,4292.24242381,234.909090886,4518.90909046,3688.48484812,4222.18181776,3041.45454515,4375.69696926,1664.9696968,4945.45454496,2921.93939365,4184.57575716,4001.6969693,4424.12121168,4.1212121208,4199.5151511,8.2424242416,4837.7878783,8.2424242416,4511.18181773,3779.15151477,42.0,42.0,?
2017-06-01 17:47:06.865495,4542.60606015,4.1212121208,4331.90909048,8.2424242416,3915.15151476,4.1212121208,3877.54545416,131.878787866,4296.36363593,234.909090886,4521.48484803,3688.48484812,4236.09090867,3041.45454515,4383.42424199,1664.9696968,4950.60606011,2921.93939365,4189.72727231,4001.6969693,4430.81818138,4.1212121208,4200.54545413,8.2424242416,4840.87878739,8.2424242416,4512.21212076,3779.15151477,42.0,42.0,?
2017-06-01 17:47:06.869752,4542.09090864,4.1212121208,4327.78787836,8.2424242416,3913.0909087,4.1212121208,3875.4848481,131.878787866,4297.90909048,234.909090886,4528.69696924,3688.48484812,4246.90909048,3041.45454515,4385.99999956,1664.9696968,4949.06060557,2921.93939365,4184.57575716,4001.6969693,4425.66666622,4.1212121208,4199.5151511,8.2424242416,4836.24242376,8.2424242416,4506.54545409,3779.15151477,42.0,42.0,?
2017-06-01 17:47:06.881657,4540.54545409,4.1212121208,4325.21212078,8.2424242416,3913.0909087,4.1212121208,3872.90909052,131.878787866,4302.54545412,234.909090886,4527.66666621,3688.48484812,4244.84848442,3041.45454515,4381.87878744,1664.9696968,4943.90909041,2921.93939365,4184.57575716,4001.6969693,4425.15151471,4.1212121208,4202.09090867,8.2424242416,4840.36363588,8.2424242416,4502.42424197,3779.15151477,42.0,42.0,?
2017-06-01 17:47:06.886732,4541.57575712,4.1212121208,4330.87878745,8.2424242416,3915.66666628,4.1212121208,3873.42424204,131.878787866,4300.99999957,234.909090886,4522.51515106,3688.48484812,4241.24242382,3041.45454515,4379.81818138,1664.9696968,4941.33333284,2921.93939365,4186.1212117,4001.6969693,4423.60606016,4.1212121208,4202.60606019,8.2424242416,4839.33333285,8.2424242416,4507.06060561,3779.15151477,42.0,42.0,?
2017-06-01 17:47:06.895453,4541.57575712,4.1212121208,4332.93939351,8.2424242416,3912.57575718,4.1212121208,3873.42424204,131.878787866,4283.48484806,234.909090886,4521.48484803,3688.48484812,4241.24242382,3041.45454515,4376.72727229,1664.9696968,4943.90909041,2921.93939365,4179.93939352,4001.6969693,4426.69696925,4.1212121208,4200.54545413,8.2424242416,4837.27272679,8.2424242416,4508.60606016,3779.15151477,42.0,42.0,?
2017-06-01 17:47:06.901747,4539.51515106,4.1212121208,4329.84848442,8.2424242416,3909.48484809,4.1212121208,3873.42424204,131.878787866,4271.63636321,234.909090886,4519.42424197,3688.48484812,4238.15151473,3041.45454515,4377.2424238,1664.9696968,4950.0909086,2921.93939365,4183.03030261,4001.6969693,4433.39393895,4.1212121208,4201.06060564,8.2424242416,4842.93939346,8.2424242416,4507.57575713,3779.15151477,42.0,42.0,?
2017-06-01 17:47:06.908716,4542.60606015,4.1212121208,4328.81818139,8.2424242416,3914.12121173,4.1212121208,3873.42424204,131.878787866,4271.63636321,234.909090886,4513.75757531,3688.48484812,4228.36363594,3041.45454515,4377.2424238,1664.9696968,4947.51515102,2921.93939365,4190.24242382,4001.6969693,4426.18181774,4.1212121208,4201.57575716,8.2424242416,4836.75757527,8.2424242416,4508.09090864,3779.15151477,42.0,42.0,?
2017-06-01 17:47:06.917357,4542.60606015,4.1212121208,4327.78787836,8.2424242416,3914.63636324,4.1212121208,3872.39393901,131.878787866,4278.33333291,234.909090886,4510.66666622,3688.48484812,4222.18181776,3041.45454515,4373.6363632,1664.9696968,4942.36363587,2921.93939365,4190.24242382,4001.6969693,4426.18181774,4.1212121208,4203.1212117,8.2424242416,4838.30302982,8.2424242416,4506.54545409,3779.15151477,42.0,42.0,?
