Timestamp,F3 Value,F3 Quality,FC5 Value,FC5 Quality,F7 Value,F7 Quality,T7 Value,T7 Quality,P7 Value,P7 Quality,O1 Value,O1 Quality,O2 Value,O2 Quality,P8 Value,P8 Quality,T8 Value,T8 Quality,F8 Value,F8 Quality,AF4 Value,AF4 Quality,FC6 Value,FC6 Quality,F4 Value,F4 Quality,AF3 Value,AF3 Quality,X Value,Y Value,Z Value
2017-06-01 18:06:10.308857,4540.03030258,0,4218.57575715,0,3918.24242385,0,3811.09090871,0,4228.36363594,0,4445.75757531,0,4116.57575716,0,4263.90909048,0,4948.54545405,0,3989.84848445,0,4428.75757531,0,4211.36363594,0,4841.39393891,0,4381.36363593,0,42.0,42.0,?
2017-06-01 18:06:10.312037,4540.03030258,0,4218.57575715,0,3918.24242385,0,3811.09090871,0,4228.36363594,0,4445.75757531,0,4116.57575716,0,4263.90909048,0,4948.54545405,0,3989.84848445,0,4428.75757531,0,4211.36363594,0,4841.39393891,0,4381.36363593,0,42.0,42.0,?
2017-06-01 18:06:10.316584,4533.33333288,0,4214.45454503,0,3914.12121173,0,3824.4848481,0,4225.27272685,0,4445.2424238,0,4121.2121208,0,4265.96969654,0,4940.30302981,0,3990.36363596,0,4432.87878744,0,4212.90909049,0,4839.84848436,0,4385.48484805,0,42.0,42.0,?
2017-06-01 18:06:10.321174,4542.09090864,0,4218.57575715,0,3918.75757537,0,3811.60606022,0,4227.33333291,0,4444.72727228,0,4123.78787838,0,4277.30302988,0,4927.42424193,0,3995.51515112,0,4431.84848441,0,4213.93939352,0,4840.36363588,0,4385.48484805,0,42.0,42.0,?
2017-06-01 18:06:10.324617,4543.12121167,0,4217.54545412,0,3918.24242385,0,3807.4848481,0,4235.57575715,0,4441.63636319,0,4120.69696928,0,4277.81818139,0,4929.48484799,0,3997.06060566,0,4425.15151471,0,4211.87878746,0,4839.33333285,0,4387.54545411,0,42.0,42.0,?
2017-06-01 18:06:10.327453,4534.87878743,4.1212121208,4214.96969655,0,3912.57575718,0,3830.15151477,0,4229.39393897,0,4436.99999956,0,4120.18181777,0,4273.18181775,0,4935.66666617,0,4006.33333293,0,4428.2424238,0,4213.424242,0,4841.39393891,0,4397.33333289,0,42.0,42.0,?
2017-06-01 18:06:10.330391,4544.66666621,4.1212121208,4220.1212117,0.0,3917.72727234,0,3846.12121174,0,4219.09090867,0,4438.5454541,0,4125.84848444,0,4283.48484806,0,4955.75757526,0,4019.21212081,0,4430.81818138,0,4215.48484806,0,4839.33333285,0,4408.15151471,0,42.0,42.0,?
2017-06-01 18:06:10.333496,4538.99999955,4.1212121208,4217.03030261,0.0,3917.21212082,0,3838.90909053,0,4232.48484806,0,4442.66666622,0,4133.57575716,0,4294.81818139,0,4975.84848435,0,4024.36363596,0,4430.30302986,0,4214.96969655,0,4838.81818133,0,4418.45454501,3692.60606024,42.0,42.0,?
2017-06-01 18:06:10.336805,4543.12121167,4.1212121208,4220.1212117,0.0,3916.69696931,0.0,3822.93939356,0,4249.48484806,0,4448.8484844,0,4134.60606019,0,4287.60606018,0,4959.87878738,0,4016.12121172,0,4428.2424238,0,4213.93939352,0,4845.51515103,0,4419.48484804,3692.60606024,42.0,42.0,?
2017-06-01 18:06:10.345472,4543.12121167,4.1212121208,4219.60606018,0.0,3917.72727234,0.0,3827.06060568,4150.06060565,4243.30302988,0,4450.39393895,0,4132.54545413,0,4292.24242381,0,4944.93939344,0,4015.09090869,0,4426.69696925,0,4214.96969655,0,4842.42424194,0,4413.81818138,3692.60606024,42.0,42.0,?
2017-06-01 18:06:10.350187,4533.8484844,4.1212121208,4212.39393897,0.0,3917.21212082,0.0,3841.99999962,4150.06060565,4236.60606018,156.60606059,4447.81818137,0,4134.60606019,0,4303.06060563,0,4956.27272678,0,4019.72727233,0,4431.33333289,0,4214.45454503,0,4837.7878783,0,4412.78787835,3692.60606024,42.0,42.0,?
2017-06-01 18:06:10.353498,4547.24242379,4.1212121208,4215.99999958,0.0,3917.72727234,0.0,3833.24242386,4150.06060565,4249.48484806,156.60606059,4451.93939349,486.303030254,4136.66666625,0,4290.18181775,0,4956.78787829,0,4015.6060602,0,4427.72727228,0,4211.87878746,0,4840.87878739,0,4408.66666623,3692.60606024,42.0,42.0,?
2017-06-01 18:06:10.356426,4540.54545409,4.1212121208,4217.03030261,0.0,3914.12121173,0.0,3830.15151477,4150.06060565,4268.0303026,156.60606059,4458.12121168,486.303030254,4138.2121208,41.212121208,4288.63636321,0,4954.72727223,0,4018.18181778,0,4424.12121168,0,4212.90909049,0,4839.84848436,0,4407.12121168,3692.60606024,42.0,42.0,?
2017-06-01 18:06:10.359498,4536.93939349,4.1212121208,4218.06060564,0.0,3918.75757537,0.0,3846.63636325,4150.06060565,4264.93939351,156.60606059,4459.66666622,486.303030254,4138.2121208,41.212121208,4300.99999957,1866.90909072,4957.30302981,0,4025.39393899,0,4427.72727228,0,4214.45454503,0,4839.33333285,0,4409.18181774,3692.60606024,42.0,42.0,?
2017-06-01 18:06:10.363584,4542.09090864,4.1212121208,4219.60606018,0.0,3919.7878784,0.0,3848.1818178,4150.06060565,4251.03030261,156.60606059,4459.15151471,486.303030254,4137.69696928,41.212121208,4297.39393896,1866.90909072,4958.33333284,2884.84848456,4022.3030299,0,4429.27272683,0,4210.33333291,0,4839.33333285,0,4409.69696926,3692.60606024,42.0,42.0,?
2017-06-01 18:06:10.367422,4534.87878743,4.1212121208,4217.03030261,0.0,3914.12121173,0.0,3838.90909053,4150.06060565,4251.54545412,156.60606059,4457.09090865,486.303030254,4141.30302989,41.212121208,4299.96969654,1866.90909072,4975.84848435,2884.84848456,4025.39393899,3577.21212085,4429.27272683,0,4215.48484806,0,4840.36363588,0,4413.30302986,3692.60606024,42.0,42.0,?
2017-06-01 18:06:10.370483,4544.66666621,4.1212121208,4220.63636321,0.0,3916.69696931,0.0,3835.81818143,4150.06060565,4257.21212079,156.60606059,4451.42424198,486.303030254,4143.87878746,41.212121208,4314.39393896,1866.90909072,4985.63636314,2884.84848456,4040.84848444,3577.21212085,4427.72727228,4.1212121208,4220.1212117,0,4838.81818133,0,4419.99999956,3692.60606024,42.0,42.0,?
2017-06-01 18:06:10.373508,4538.99999955,4.1212121208,4215.48484806,0.0,3917.21212082,0.0,3836.84848446,4150.06060565,4259.78787836,156.60606059,4449.87878743,486.303030254,4141.8181814,41.212121208,4319.0303026,1866.90909072,4973.78787829,2884.84848456,4044.45454505,3577.21212085,4428.2424238,4.1212121208,4214.45454503,8.2424242416,4837.27272679,0,4424.63636319,3692.60606024,42.0,42.0,?
2017-06-01 18:06:10.379845,4538.48484803,4.1212121208,4213.93939352,0.0,3917.72727234,0.0,3834.7878784,4150.06060565,4259.78787836,156.60606059,4456.06060561,486.303030254,4141.30302989,41.212121208,4307.18181775,1866.90909072,4970.6969692,2884.84848456,4036.21212081,3577.21212085,4429.27272683,4.1212121208,4212.90909049,8.2424242416,4841.90909042,8.2424242416,4427.21212077,3692.60606024,42.0,42.0,?
2017-06-01 18:06:10.387477,4545.69696924,4.1212121208,4216.51515109,0.0,3916.18181779,0.0,3840.45454507,4150.06060565,4260.30302988,156.60606059,4458.12121168,486.303030254,4146.45454504,41.212121208,4296.36363593,1866.90909072,4984.60606011,2884.84848456,4039.81818141,3585.4545451,4426.69696925,4.1212121208,4217.54545412,8.2424242416,4841.90909042,8.2424242416,4430.81818138,3692.60606024,42.0,42.0,?
2017-06-01 18:06:10.397187,4531.78787833,4.1212121208,4215.48484806,0.0,3913.0909087,0.0,3847.66666628,4150.06060565,4255.66666624,156.60606059,4453.99999955,486.303030254,4149.03030262,41.212121208,4304.60606018,1866.90909072,4987.6969692,2884.84848456,4046.51515111,3585.4545451,4429.27272683,8.2424242416,4216.51515109,8.2424242416,4839.33333285,8.2424242416,4431.33333289,3692.60606024,42.0,42.0,?
2017-06-01 18:06:10.403449,4542.09090864,4.1212121208,4221.15151473,0.0,3917.21212082,0.0,3841.4848481,4150.06060565,4246.39393897,156.60606059,4453.99999955,486.303030254,4142.84848443,41.212121208,4310.27272684,1866.90909072,4959.87878738,2884.84848456,4029.51515111,3585.4545451,4428.75757531,8.2424242416,4213.424242,8.2424242416,4839.84848436,8.2424242416,4419.99999956,3692.60606024,42.0,42.0,?
2017-06-01 18:06:10.412115,4543.12121167,4.1212121208,4215.99999958,0.0,3914.12121173,0.0,3848.69696931,4150.06060565,4261.84848442,156.60606059,4457.09090865,486.303030254,4142.84848443,41.212121208,4311.30302987,1866.90909072,4950.0909086,2884.84848456,4027.45454505,3585.4545451,4426.18181774,8.2424242416,4215.48484806,8.2424242416,4840.87878739,8.2424242416,4419.99999956,3692.60606024,42.0,42.0,?
2017-06-01 18:06:10.419308,4535.90909046,4.1212121208,4212.90909049,0.0,3913.60606021,0.0,3856.42424204,4150.06060565,4274.21212078,156.60606059,4460.69696925,486.303030254,4149.03030262,41.212121208,4318.51515108,1866.90909072,4972.75757526,2884.84848456,4047.03030263,3585.4545451,4429.78787834,8.2424242416,4214.96969655,8.2424242416,4842.93939346,8.2424242416,4429.27272683,3692.60606024,42.0,42.0,?
2017-06-01 18:06:10.429553,4541.06060561,4.1212121208,4218.06060564,0.0,3917.72727234,0.0,3856.93939355,4150.06060565,4263.90909048,156.60606059,4463.78787834,486.303030254,4150.06060565,41.212121208,4316.96969654,1866.90909072,4987.6969692,2884.84848456,4049.6060602,3585.4545451,4429.27272683,8.2424242416,4212.90909049,8.2424242416,4838.81818133,8.2424242416,4430.30302986,3692.60606024,42.0,42.0,?
2017-06-01 18:06:10.435477,4532.81818136,4.1212121208,4215.48484806,0.0,3915.15151476,0.0,3858.4848481,4150.06060565,4266.99999957,156.60606059,4466.87878743,486.303030254,4148.5151511,41.212121208,4302.54545412,1866.90909072,4987.6969692,2884.84848456,4044.96969657,3585.4545451,4428.2424238,8.2424242416,4216.51515109,8.2424242416,4836.75757527,8.2424242416,4427.21212077,3692.60606024,42.0,42.0,?
2017-06-01 18:06:10.446906,4540.54545409,4.1212121208,4217.54545412,0.0,3918.24242385,0.0,3824.4848481,4150.06060565,4271.63636321,156.60606059,4467.39393895,486.303030254,4145.42424201,41.212121208,4294.30302987,1866.90909072,4974.81818132,2884.84848456,4037.24242384,3585.4545451,4428.2424238,8.2424242416,4215.48484806,8.2424242416,4841.90909042,8.2424242416,4425.66666622,3692.60606024,42.0,42.0,?
2017-06-01 18:06:10.452526,4541.06060561,4.1212121208,4214.96969655,0.0,3917.21212082,0.0,3817.78787841,4150.06060565,4270.60606018,156.60606059,4464.30302986,486.303030254,4149.03030262,41.212121208,4308.7272723,1866.90909072,4973.27272678,2884.84848456,4033.12121172,3585.4545451,4428.75757531,8.2424242416,4213.424242,8.2424242416,4841.90909042,8.2424242416,4433.90909047,3692.60606024,42.0,42.0,?
2017-06-01 18:06:10.457735,4536.42424197,4.1212121208,4215.99999958,0.0,3915.66666628,0.0,3878.06060567,4150.06060565,4276.78787836,156.60606059,4462.75757531,486.303030254,4154.69696928,41.212121208,4312.3333329,1866.90909072,4979.96969647,2884.84848456,4044.96969657,3585.4545451,4431.33333289,8.2424242416,4212.90909049,8.2424242416,4838.81818133,8.2424242416,4441.63636319,3692.60606024,42.0,42.0,?
2017-06-01 18:06:10.467722,4544.1515147,4.1212121208,4219.60606018,0.0,3918.75757537,0.0,3907.42424203,4150.06060565,4280.90909048,156.60606059,4459.66666622,486.303030254,4146.96969656,41.212121208,4299.96969654,1866.90909072,4968.63636314,2884.84848456,4054.75757535,3585.4545451,4429.78787834,8.2424242416,4211.87878746,8.2424242416,4838.30302982,8.2424242416,4438.5454541,3692.60606024,42.0,42.0,?
2017-06-01 18:06:10.473904,4534.87878743,4.1212121208,4214.45454503,0.0,3915.15151476,0.0,3867.75757537,4150.06060565,4274.21212078,156.60606059,4454.51515107,486.303030254,4143.36363595,41.212121208,4308.7272723,1866.90909072,4967.09090859,2884.84848456,4053.21212081,3585.4545451,4430.30302986,8.2424242416,4212.90909049,8.2424242416,4839.33333285,8.2424242416,4438.5454541,3692.60606024,42.0,42.0,?
2017-06-01 18:06:10.483479,4540.54545409,4.1212121208,4218.57575715,0.0,3916.18181779,0.0,3836.84848446,4150.06060565,4262.36363594,156.60606059,4458.12121168,486.303030254,4151.60606019,41.212121208,4320.06060563,1866.90909072,4979.45454496,2884.84848456,4044.96969657,3585.4545451,4429.78787834,8.2424242416,4212.90909049,8.2424242416,4840.36363588,8.2424242416,4442.15151471,3692.60606024,42.0,42.0,?
2017-06-01 18:06:10.489420,4541.57575712,4.1212121208,4218.06060564,0.0,3915.15151476,0.0,3853.84848446,4150.06060565,4265.96969654,156.60606059,4461.21212077,486.303030254,4154.69696928,41.212121208,4319.54545411,1866.90909072,4984.60606011,2884.84848456,4048.06060566,3585.4545451,4426.69696925,8.2424242416,4213.424242,8.2424242416,4837.7878783,8.2424242416,4445.2424238,3692.60606024,42.0,42.0,?
2017-06-01 18:06:10.497418,4532.81818136,4.1212121208,4216.51515109,0.0,3912.06060567,0.0,3860.54545416,4150.06060565,4272.66666624,156.60606059,4458.63636319,486.303030254,4152.12121171,41.212121208,4320.06060563,1866.90909072,4984.09090859,2884.84848456,4056.81818141,3585.4545451,4428.75757531,8.2424242416,4213.424242,8.2424242416,4838.81818133,8.2424242416,4446.78787834,3692.60606024,42.0,42.0,?
2017-06-01 18:06:10.504553,4543.63636318,4.1212121208,4221.15151473,0.0,3917.21212082,0.0,3848.69696931,4150.06060565,4270.09090866,156.60606059,4458.63636319,486.303030254,4152.63636322,41.212121208,4321.60606017,1866.90909072,4988.21212071,2884.84848456,4056.3030299,3585.4545451,4427.72727228,8.2424242416,4212.39393897,8.2424242416,4840.36363588,8.2424242416,4444.72727228,3692.60606024,42.0,42.0,?
2017-06-01 18:06:10.514142,4537.454545,4.1212121208,4214.45454503,0.0,3916.69696931,0.0,3856.93939355,4150.06060565,4272.66666624,156.60606059,4461.21212077,486.303030254,4157.78787837,41.212121208,4324.18181775,1866.90909072,4990.78787829,2884.84848456,4057.33333293,3585.4545451,4427.72727228,8.2424242416,4214.96969655,8.2424242416,4839.84848436,8.2424242416,4445.2424238,3692.60606024,42.0,42.0,?
2017-06-01 18:06:10.520379,4538.99999955,4.1212121208,4214.45454503,0.0,3917.21212082,0.0,3864.15151477,4150.06060565,4271.63636321,156.60606059,4463.78787834,486.303030254,4160.36363595,41.212121208,4323.15151472,1866.90909072,4980.9999995,2884.84848456,4056.81818141,3585.4545451,4428.75757531,8.2424242416,4214.96969655,8.2424242416,4839.33333285,8.2424242416,4441.63636319,3692.60606024,42.0,42.0,?
2017-06-01 18:06:10.528436,4541.06060561,4.1212121208,4215.99999958,0.0,3918.24242385,0.0,3857.45454507,4150.06060565,4274.7272723,156.60606059,4465.8484844,486.303030254,4160.36363595,41.212121208,4324.18181775,1866.90909072,4984.60606011,2884.84848456,4058.87878747,3585.4545451,4426.69696925,8.2424242416,4210.33333291,8.2424242416,4838.81818133,8.2424242416,4439.06060562,3692.60606024,42.0,42.0,?
2017-06-01 18:06:10.537067,4534.36363591,4.1212121208,4215.99999958,0.0,3918.24242385,0.0,3865.69696931,4150.06060565,4289.15151472,156.60606059,4467.39393895,486.303030254,4166.03030261,41.212121208,4331.39393896,1866.90909072,5005.72727223,2884.84848456,4062.48484808,3585.4545451,4431.33333289,8.2424242416,4212.39393897,8.2424242416,4843.45454497,8.2424242416,4448.8484844,3692.60606024,42.0,42.0,?
2017-06-01 18:06:10.545563,4545.18181773,4.1212121208,4220.1212117,0.0,3923.393939,0.0,3873.42424204,4150.06060565,4288.12121169,156.60606059,4467.90909046,486.303030254,4170.15151473,41.212121208,4326.75757532,1866.90909072,5002.63636314,2884.84848456,4059.9090905,3585.4545451,4429.78787834,8.2424242416,4212.39393897,8.2424242416,4844.484848,8.2424242416,4455.5454541,3692.60606024,42.0,42.0,?
2017-06-01 18:06:10.552051,4537.454545,4.1212121208,4215.48484806,0.0,3919.7878784,0.0,3870.33333295,4150.06060565,4277.81818139,156.60606059,4466.87878743,486.303030254,4164.99999958,41.212121208,4319.0303026,1866.90909072,4978.42424193,2884.84848456,4065.06060565,3585.4545451,4428.2424238,8.2424242416,4210.84848443,8.2424242416,4840.87878739,8.2424242416,4455.03030258,3692.60606024,42.0,42.0,?
2017-06-01 18:06:10.559553,4537.454545,4.1212121208,4218.06060564,0.0,3917.21212082,0.0,3870.33333295,4150.06060565,4282.96969654,156.60606059,4468.42424198,486.303030254,4158.8181814,41.212121208,4326.24242381,1866.90909072,4983.57575708,2884.84848456,4067.63636323,3585.4545451,4430.81818138,8.2424242416,4213.424242,8.2424242416,4840.87878739,8.2424242416,4453.48484804,3692.60606024,42.0,42.0,?
2017-06-01 18:06:10.568905,4544.1515147,4.1212121208,4220.63636321,0.0,3918.24242385,0.0,3873.42424204,4150.06060565,4294.30302987,156.60606059,4471.51515107,486.303030254,4162.93939352,41.212121208,4344.27272684,1866.90909072,5012.42424192,2884.84848456,4069.18181777,3585.4545451,4427.72727228,8.2424242416,4214.96969655,8.2424242416,4839.33333285,8.2424242416,4456.57575713,3692.60606024,42.0,42.0,?
2017-06-01 18:06:10.576585,4536.42424197,4.1212121208,4215.48484806,0.0,3915.15151476,0.0,3879.60606022,4150.06060565,4292.24242381,156.60606059,4468.42424198,486.303030254,4172.72727231,41.212121208,4357.15151472,1866.90909072,5018.6060601,2884.84848456,4084.63636323,3585.4545451,4428.75757531,8.2424242416,4215.48484806,8.2424242416,4842.42424194,8.2424242416,4458.63636319,3692.60606024,42.0,42.0,?
2017-06-01 18:06:10.584991,4548.27272682,4.1212121208,4219.60606018,0.0,3917.72727234,0.0,3881.15151476,4150.06060565,4286.57575715,156.60606059,4467.90909046,486.303030254,4172.21212079,41.212121208,4349.42424199,1866.90909072,5005.21212071,2884.84848456,4078.45454505,3585.4545451,4429.78787834,8.2424242416,4212.39393897,8.2424242416,4844.484848,8.2424242416,4451.42424198,3692.60606024,42.0,42.0,?
2017-06-01 18:06:10.590445,4542.60606015,4.1212121208,4217.03030261,0.0,3916.69696931,0.0,3872.90909052,4150.06060565,4294.30302987,156.60606059,4470.99999955,486.303030254,4171.18181776,41.212121208,4338.60606017,1866.90909072,4998.51515102,2884.84848456,4057.33333293,3585.4545451,4430.81818138,8.2424242416,4211.36363594,8.2424242416,4838.30302982,8.2424242416,4446.27272683,3692.60606024,42.0,42.0,?
2017-06-01 18:06:10.598461,4535.90909046,4.1212121208,4213.93939352,0.0,3918.75757537,0.0,3862.0909087,4150.06060565,4295.84848442,156.60606059,4467.90909046,486.303030254,4173.24242383,41.212121208,4342.72727229,1866.90909072,4999.03030253,2884.84848456,4065.06060565,3585.4545451,4431.84848441,8.2424242416,4214.45454503,8.2424242416,4838.81818133,8.2424242416,4447.81818137,3692.60606024,42.0,42.0,?
2017-06-01 18:06:10.606919,4542.60606015,4.1212121208,4217.54545412,0.0,3920.30302991,0.0,3867.75757537,4150.06060565,4294.81818139,156.60606059,4466.36363592,486.303030254,4172.21212079,41.212121208,4353.54545411,1866.90909072,5008.81818132,2884.84848456,4088.24242383,3585.4545451,4428.75757531,8.2424242416,4214.45454503,8.2424242416,4839.33333285,8.2424242416,4456.06060561,3692.60606024,42.0,42.0,?
2017-06-01 18:06:10.616311,4533.33333288,4.1212121208,4218.06060564,0.0,3914.63636324,0.0,3882.18181779,4150.06060565,4303.06060563,156.60606059,4472.03030258,486.303030254,4171.69696928,41.212121208,4348.90909047,1866.90909072,5017.06060556,2884.84848456,4092.36363595,3585.4545451,4430.81818138,8.2424242416,4214.96969655,8.2424242416,4837.7878783,8.2424242416,4462.2424238,3692.60606024,42.0,42.0,?
2017-06-01 18:06:10.623305,4541.57575712,4.1212121208,4222.18181776,0.0,3917.21212082,0.0,3886.81818143,4150.06060565,4297.39393896,156.60606059,4471.51515107,486.303030254,4173.24242383,41.212121208,4332.42424199,1866.90909072,5006.24242374,2884.84848456,4074.84848444,3585.4545451,4429.78787834,8.2424242416,4220.1212117,8.2424242416,4841.39393891,8.2424242416,4455.03030258,3692.60606024,42.0,42.0,?
2017-06-01 18:06:10.631530,4541.57575712,4.1212121208,4217.03030261,0.0,3915.66666628,0.0,3882.69696931,4150.06060565,4284.51515109,156.60606059,4467.39393895,486.303030254,4176.84848443,41.212121208,4338.60606017,1866.90909072,5003.66666617,2884.84848456,4073.3030299,3585.4545451,4427.72727228,8.2424242416,4219.09090867,8.2424242416,4840.36363588,8.2424242416,4451.42424198,3692.60606024,42.0,42.0,?
2017-06-01 18:06:10.646272,4536.42424197,4.1212121208,4217.03030261,0.0,3914.12121173,0.0,3863.12121173,4150.06060565,4288.63636321,156.60606059,4470.48484804,486.303030254,4176.84848443,41.212121208,4357.66666623,1866.90909072,5006.75757526,2884.84848456,4077.42424202,3585.4545451,4429.78787834,8.2424242416,4211.36363594,8.2424242416,4838.81818133,8.2424242416,4454.51515107,3692.60606024,42.0,42.0,?
2017-06-01 18:06:10.651502,4544.66666621,4.1212121208,4221.15151473,0.0,3919.27272688,0.0,3859.51515113,4150.06060565,4303.57575715,156.60606059,4475.63636319,486.303030254,4174.27272686,41.212121208,4354.57575714,1866.90909072,4995.93939344,2884.84848456,4066.09090868,3585.4545451,4428.75757531,8.2424242416,4210.33333291,8.2424242416,4841.39393891,8.2424242416,4453.48484804,3692.60606024,42.0,42.0,?
2017-06-01 18:06:10.654762,4535.39393894,4.1212121208,4212.90909049,0.0,3916.69696931,0.0,3895.06060567,4150.06060565,4304.09090866,156.60606059,4474.09090864,486.303030254,4172.21212079,41.212121208,4341.18181775,1866.90909072,4993.36363586,2884.84848456,4065.06060565,3585.4545451,4428.75757531,8.2424242416,4214.45454503,8.2424242416,4844.99999952,8.2424242416,4452.96969652,3692.60606024,42.0,42.0,?
2017-06-01 18:06:10.663532,4542.60606015,4.1212121208,4214.45454503,0.0,3917.72727234,0.0,3909.48484809,4150.06060565,4286.57575715,156.60606059,4472.03030258,486.303030254,4163.96969655,41.212121208,4331.90909048,1866.90909072,4995.42424192,2884.84848456,4067.63636323,3585.4545451,4430.30302986,8.2424242416,4212.39393897,8.2424242416,4843.96969649,8.2424242416,4445.2424238,3692.60606024,42.0,42.0,?
2017-06-01 18:06:10.669930,4542.60606015,4.1212121208,4216.51515109,0.0,3915.15151476,0.0,3877.54545416,4150.06060565,4285.54545412,156.60606059,4470.48484804,486.303030254,4160.36363595,41.212121208,4331.39393896,1866.90909072,4994.39393889,2884.84848456,4068.15151474,3585.4545451,4429.27272683,8.2424242416,4210.33333291,8.2424242416,4838.81818133,8.2424242416,4441.63636319,3692.60606024,42.0,42.0,?
2017-06-01 18:06:10.678787,4533.33333288,4.1212121208,4217.03030261,0.0,3914.12121173,0.0,3862.60606022,4150.06060565,4308.21212078,156.60606059,4473.57575713,486.303030254,4171.69696928,41.212121208,4337.06060563,1866.90909072,4987.18181768,2884.84848456,4070.72727232,3585.4545451,4427.72727228,8.2424242416,4214.45454503,8.2424242416,4840.36363588,8.2424242416,4451.93939349,3692.60606024,42.0,42.0,?
2017-06-01 18:06:10.685176,4541.57575712,4.1212121208,4219.60606018,0.0,3917.72727234,0.0,3883.72727234,4150.06060565,4314.90909048,156.60606059,4477.69696925,486.303030254,4176.84848443,41.212121208,4342.21212078,1866.90909072,4979.96969647,2884.84848456,4071.24242384,3585.4545451,4426.69696925,8.2424242416,4213.93939352,8.2424242416,4840.87878739,8.2424242416,4456.57575713,3692.60606024,42.0,42.0,?
2017-06-01 18:06:10.694298,4533.8484844,4.1212121208,4214.45454503,0.0,3914.63636324,0.0,3892.99999961,4150.06060565,4293.27272684,156.60606059,4474.60606016,486.303030254,4168.60606019,41.212121208,4346.84848441,1866.90909072,4997.48484799,2884.84848456,4072.27272687,3585.4545451,4429.27272683,8.2424242416,4211.87878746,8.2424242416,4839.33333285,8.2424242416,4455.03030258,3692.60606024,42.0,42.0,?
2017-06-01 18:06:10.705892,4537.96969652,4.1212121208,4217.54545412,0.0,3916.18181779,0.0,3886.81818143,4150.06060565,4283.48484806,156.60606059,4474.09090864,486.303030254,4171.18181776,41.212121208,4344.78787835,1866.90909072,5013.96969647,2884.84848456,4070.21212081,3585.4545451,4428.2424238,8.2424242416,4213.93939352,8.2424242416,4839.84848436,8.2424242416,4461.21212077,3692.60606024,42.0,42.0,?
2017-06-01 18:06:10.709193,4540.54545409,4.1212121208,4218.06060564,0.0,3917.21212082,0.0,3883.72727234,4150.06060565,4299.45454502,156.60606059,4474.60606016,486.303030254,4184.06060564,41.212121208,4344.78787835,1866.90909072,5016.54545404,2884.84848456,4079.99999959,3585.4545451,4427.21212077,8.2424242416,4214.96969655,8.2424242416,4836.75757527,8.2424242416,4470.99999955,3692.60606024,42.0,42.0,?
2017-06-01 18:06:10.719076,4533.33333288,4.1212121208,4217.03030261,0.0,3916.18181779,0.0,3870.84848446,4150.06060565,4300.99999957,156.60606059,4468.93939349,486.303030254,4183.03030261,41.212121208,4354.06060563,1866.90909072,5016.03030253,2884.84848456,4100.6060602,3585.4545451,4432.87878744,8.2424242416,4213.424242,8.2424242416,4838.30302982,8.2424242416,4472.5454541,3692.60606024,42.0,42.0,?
2017-06-01 18:06:10.725603,4544.66666621,4.1212121208,4222.18181776,0.0,3918.24242385,0.0,3867.24242386,4150.06060565,4281.93939351,156.60606059,4463.27272683,486.303030254,4170.15151473,41.212121208,4351.48484805,1866.90909072,5000.57575708,2884.84848456,4098.54545414,3585.4545451,4431.33333289,8.2424242416,4211.36363594,8.2424242416,4842.42424194,8.2424242416,4468.93939349,3692.60606024,42.0,42.0,?
2017-06-01 18:06:10.732018,4538.48484803,4.1212121208,4215.99999958,0.0,3915.15151476,0.0,3895.06060567,4150.06060565,4293.78787836,156.60606059,4465.33333289,486.303030254,4167.57575716,41.212121208,4340.15151472,1866.90909072,4986.15151465,2884.84848456,4085.15151474,3585.4545451,4429.78787834,8.2424242416,4212.90909049,8.2424242416,4839.33333285,8.2424242416,4469.96969652,3692.60606024,42.0,42.0,?
2017-06-01 18:06:10.739569,4538.99999955,4.1212121208,4216.51515109,0.0,3917.21212082,0.0,3902.7878784,4150.06060565,4315.93939351,156.60606059,4472.03030258,486.303030254,4173.24242383,41.212121208,4338.09090866,1866.90909072,4987.6969692,2884.84848456,4082.06060565,3585.4545451,4431.84848441,8.2424242416,4212.90909049,8.2424242416,4838.30302982,8.2424242416,4467.39393895,3692.60606024,42.0,42.0,?
2017-06-01 18:06:10.749455,4541.57575712,4.1212121208,4218.06060564,0.0,3917.72727234,0.0,3888.87878749,4150.06060565,4312.3333329,156.60606059,4474.09090864,486.303030254,4173.24242383,41.212121208,4346.84848441,1866.90909072,5003.15151465,2884.84848456,4077.42424202,3585.4545451,4428.75757531,8.2424242416,4211.87878746,8.2424242416,4840.36363588,8.2424242416,4465.33333289,3692.60606024,42.0,42.0,?
2017-06-01 18:06:10.755792,4531.78787833,4.1212121208,4214.96969655,0.0,3913.60606021,0.0,3896.60606022,4150.06060565,4297.90909048,156.60606059,4469.96969652,486.303030254,4174.78787837,41.212121208,4348.90909047,1866.90909072,5013.96969647,2884.84848456,4072.78787838,3585.4545451,4428.75757531,8.2424242416,4212.90909049,8.2424242416,4841.39393891,8.2424242416,4468.93939349,3692.60606024,42.0,42.0,?
2017-06-01 18:06:10.764470,4541.06060561,4.1212121208,4219.60606018,0.0,3917.72727234,0.0,3881.15151476,4150.06060565,4284.51515109,156.60606059,4466.36363592,486.303030254,4173.24242383,41.212121208,4335.51515108,1866.90909072,4994.39393889,2884.84848456,4078.45454505,3585.4545451,4429.78787834,8.2424242416,4211.87878746,8.2424242416,4840.36363588,8.2424242416,4465.33333289,3692.60606024,42.0,42.0,?
2017-06-01 18:06:10.771081,4535.90909046,4.1212121208,4215.48484806,0.0,3917.21212082,0.0,3857.45454507,4150.06060565,4287.09090866,156.60606059,4463.78787834,486.303030254,4170.15151473,41.212121208,4338.09090866,1866.90909072,4984.09090859,2884.84848456,4086.69696929,3585.4545451,4429.27272683,8.2424242416,4212.39393897,8.2424242416,4837.7878783,8.2424242416,4468.93939349,3692.60606024,42.0,42.0,?
2017-06-01 18:06:10.778863,4536.42424197,12.3636363624,4215.48484806,0.0,3918.75757537,0.0,3878.06060567,4150.06060565,4295.84848442,156.60606059,4464.81818137,486.303030254,4172.21212079,41.212121208,4346.84848441,1866.90909072,4999.03030253,2884.84848456,4082.57575717,3585.4545451,4428.2424238,8.2424242416,4214.96969655,8.2424242416,4838.81818133,8.2424242416,4478.21212076,3692.60606024,42.0,42.0,?
2017-06-01 18:06:10.788493,4543.63636318,12.3636363624,4218.06060564,0.0,3921.84848446,0.0,3906.90909052,4150.06060565,4295.3333329,156.60606059,4467.39393895,486.303030254,4176.84848443,41.212121208,4337.57575714,1866.90909072,5006.75757526,2884.84848456,4079.99999959,3585.4545451,4427.21212077,8.2424242416,4214.96969655,8.2424242416,4839.33333285,8.2424242416,4480.78787834,3692.60606024,42.0,42.0,?
2017-06-01 18:06:10.795159,4531.78787833,12.3636363624,4215.99999958,0.0,3916.18181779,0.0,3906.393939,4150.06060565,4299.96969654,156.60606059,4469.96969652,486.303030254,4177.87878746,41.212121208,4333.96969654,1866.90909072,5006.24242374,2884.84848456,4089.27272686,3585.4545451,4430.30302986,8.2424242416,4213.424242,8.2424242416,4840.87878739,8.2424242416,4482.33333289,3696.72727236,42.0,42.0,?
2017-06-01 18:06:10.802606,4540.03030258,12.3636363624,4222.18181776,0.0,3917.72727234,4.1212121208,3884.75757537,4150.06060565,4299.96969654,156.60606059,4474.09090864,486.303030254,4172.21212079,41.212121208,4342.21212078,1866.90909072,5004.6969692,2884.84848456,4090.30302989,3585.4545451,4427.72727228,8.2424242416,4212.39393897,8.2424242416,4841.39393891,8.2424242416,4479.24242379,3696.72727236,42.0,42.0,?
2017-06-01 18:06:10.813220,4538.99999955,12.3636363624,4220.63636321,0.0,3919.27272688,4.1212121208,3875.99999961,4100.6060602,4296.87878745,156.60606059,4470.99999955,486.303030254,4171.18181776,41.212121208,4351.99999956,1866.90909072,5007.27272677,2884.84848456,4093.39393898,3585.4545451,4424.63636319,8.2424242416,4213.93939352,8.2424242416,4838.30302982,8.2424242416,4477.69696925,3696.72727236,42.0,42.0,?
2017-06-01 18:06:10.818823,4536.42424197,12.3636363624,4220.1212117,0.0,3918.75757537,4.1212121208,3891.96969658,4100.6060602,4300.99999957,152.48484847,4463.78787834,486.303030254,4174.78787837,41.212121208,4351.48484805,1866.90909072,5004.18181768,2884.84848456,4099.57575717,3585.4545451,4429.27272683,8.2424242416,4214.96969655,8.2424242416,4840.36363588,8.2424242416,4478.72727228,3696.72727236,42.0,42.0,?
2017-06-01 18:06:10.825882,4544.1515147,12.3636363624,4221.15151473,0.0,3917.21212082,4.1212121208,3908.96969658,4100.6060602,4304.60606018,152.48484847,4464.81818137,490.424242375,4172.21212079,41.212121208,4343.75757532,1866.90909072,4997.9999995,2884.84848456,4103.69696929,3585.4545451,4428.75757531,8.2424242416,4213.93939352,8.2424242416,4840.87878739,8.2424242416,4477.18181773,3696.72727236,42.0,42.0,?
2017-06-01 18:06:10.835861,4534.87878743,12.3636363624,4213.424242,0.0,3913.60606021,4.1212121208,3907.42424203,4100.6060602,4300.48484805,152.48484847,4470.48484804,490.424242375,4173.75757534,41.212121208,4349.9393935,1866.90909072,5002.63636314,2884.84848456,4104.2121208,3585.4545451,4428.75757531,8.2424242416,4213.93939352,8.2424242416,4839.33333285,8.2424242416,4477.69696925,3696.72727236,42.0,42.0,?
2017-06-01 18:06:10.842082,4543.12121167,12.3636363624,4216.51515109,0.0,3918.75757537,4.1212121208,3890.42424204,4100.6060602,4302.0303026,152.48484847,4473.57575713,490.424242375,4184.57575716,41.212121208,4361.27272684,1862.7878786,5010.36363586,2884.84848456,4091.84848444,3585.4545451,4430.30302986,8.2424242416,4214.96969655,8.2424242416,4840.36363588,8.2424242416,4481.81818137,3696.72727236,42.0,42.0,?
2017-06-01 18:06:10.850595,4542.09090864,12.3636363624,4218.06060564,0.0,3917.72727234,4.1212121208,3886.30302991,4100.6060602,4314.39393896,152.48484847,4473.57575713,490.424242375,4189.72727231,41.212121208,4359.21212078,1862.7878786,5017.06060556,2950.78787849,4095.45454505,3585.4545451,4427.72727228,8.2424242416,4214.96969655,8.2424242416,4837.27272679,8.2424242416,4485.93939349,3696.72727236,42.0,42.0,?
2017-06-01 18:06:10.857250,4536.93939349,12.3636363624,4215.99999958,0.0,3915.15151476,4.1212121208,3889.393939,4100.6060602,4313.87878745,152.48484847,4473.06060561,490.424242375,4179.93939352,41.212121208,4341.69696926,1862.7878786,5009.84848435,2950.78787849,4100.09090868,3589.57575722,4427.72727228,8.2424242416,4211.87878746,8.2424242416,4838.81818133,8.2424242416,4477.69696925,3696.72727236,42.0,42.0,?
2017-06-01 18:06:10.865876,4544.1515147,12.3636363624,4217.03030261,0.0,3916.69696931,4.1212121208,3901.75757537,4100.6060602,4311.30302987,152.48484847,4475.63636319,490.424242375,4174.27272686,41.212121208,4333.45454502,1862.7878786,4991.3030298,2950.78787849,4082.57575717,3589.57575722,4429.78787834,0.0,4210.84848443,8.2424242416,4841.90909042,8.2424242416,4465.8484844,3696.72727236,42.0,42.0,?
2017-06-01 18:06:10.873530,4530.7575753,12.3636363624,4214.45454503,0.0,3912.57575718,4.1212121208,3918.75757537,4100.6060602,4313.87878745,152.48484847,4474.60606016,490.424242375,4178.39393898,41.212121208,4349.42424199,1862.7878786,4995.42424192,2950.78787849,4081.03030262,3589.57575722,4426.69696925,0.0,4213.93939352,8.2424242416,4837.27272679,8.2424242416,4466.36363592,3696.72727236,42.0,42.0,?
2017-06-01 18:06:10.881067,4541.57575712,12.3636363624,4219.60606018,0.0,3918.24242385,4.1212121208,3902.7878784,4100.6060602,4298.42424199,152.48484847,4469.96969652,490.424242375,4179.42424201,41.212121208,4363.84848441,1862.7878786,5015.51515101,2950.78787849,4100.6060602,3589.57575722,4426.18181774,0.0,4213.93939352,8.2424242416,4841.90909042,4.1212121208,4475.63636319,3696.72727236,42.0,42.0,?
2017-06-01 18:06:10.888389,4546.72727227,12.3636363624,4218.06060564,0.0,3920.81818143,4.1212121208,3885.27272688,4100.6060602,4293.27272684,152.48484847,4468.42424198,490.424242375,4180.96969655,41.212121208,4363.84848441,1862.7878786,5020.15151465,2950.78787849,4108.84848444,3585.4545451,4429.27272683,0.0,4212.39393897,8.2424242416,4844.99999952,4.1212121208,4486.96969652,3696.72727236,42.0,42.0,?
2017-06-01 18:06:10.896010,4529.72727227,12.3636363624,4213.424242,0.0,3915.66666628,4.1212121208,3898.15151476,4100.6060602,4305.63636321,152.48484847,4468.42424198,490.424242375,4180.96969655,41.212121208,4357.15151472,1862.7878786,5005.21212071,2950.78787849,4098.54545414,3585.4545451,4423.09090865,8.2424242416,4211.87878746,8.2424242416,4835.21212073,4.1212121208,4489.03030258,3696.72727236,42.0,42.0,?
2017-06-01 18:06:10.904533,4542.60606015,12.3636363624,4220.1212117,0.0,3916.69696931,4.1212121208,3911.54545415,4100.6060602,4306.66666624,152.48484847,4468.42424198,490.424242375,4175.8181814,41.212121208,4349.9393935,1862.7878786,5002.63636314,2950.78787849,4101.12121171,3585.4545451,4427.72727228,8.2424242416,4213.424242,8.2424242416,4840.36363588,4.1212121208,4481.30302985,3696.72727236,42.0,42.0,?
2017-06-01 18:06:10.911929,4540.03030258,12.3636363624,4218.57575715,0.0,3915.15151476,4.1212121208,3898.66666628,4100.6060602,4300.48484805,152.48484847,4467.39393895,490.424242375,4175.30302989,41.212121208,4353.03030259,1862.7878786,5019.12121162,2950.78787849,4113.48484807,3585.4545451,4434.42424198,8.2424242416,4212.90909049,8.2424242416,4843.96969649,4.1212121208,4484.90909046,3696.72727236,42.0,42.0,?
2017-06-01 18:06:10.919709,4538.99999955,12.3636363624,4218.57575715,0.0,3918.24242385,4.1212121208,3877.03030264,4100.6060602,4294.30302987,152.48484847,4466.36363592,490.424242375,4175.30302989,41.212121208,4347.87878744,1862.7878786,5010.87878738,2950.78787849,4095.96969656,3585.4545451,4428.2424238,8.2424242416,4211.36363594,8.2424242416,4838.30302982,4.1212121208,4488.51515107,3696.72727236,42.0,42.0,?
2017-06-01 18:06:10.929907,4543.12121167,12.3636363624,4218.06060564,0.0,3918.75757537,4.1212121208,3894.54545416,4100.6060602,4305.63636321,152.48484847,4468.93939349,490.424242375,4174.78787837,41.212121208,4340.66666623,1862.7878786,4990.27272677,2950.78787849,4086.18181777,3585.4545451,4427.21212077,8.2424242416,4212.90909049,8.2424242416,4841.90909042,4.1212121208,4481.81818137,3696.72727236,42.0,42.0,?
2017-06-01 18:06:10.949203,4532.30302985,12.3636363624,4216.51515109,0.0,3914.63636324,4.1212121208,3927.51515112,4100.6060602,4323.66666623,152.48484847,4473.06060561,490.424242375,4178.90909049,41.212121208,4353.54545411,1862.7878786,5002.63636314,2950.78787849,4109.36363595,3585.4545451,4427.72727228,8.2424242416,4213.93939352,8.2424242416,4843.96969649,4.1212121208,4478.72727228,3696.72727236,42.0,42.0,?
2017-06-01 18:06:10.951454,4538.48484803,12.3636363624,4221.15151473,0.0,3917.72727234,4.1212121208,3918.75757537,4100.6060602,4313.87878745,152.48484847,4474.09090864,490.424242375,4178.39393898,41.212121208,4357.15151472,1862.7878786,5011.90909041,2950.78787849,4107.81818141,3585.4545451,4425.15151471,8.2424242416,4212.39393897,8.2424242416,4840.36363588,4.1212121208,4477.69696925,3696.72727236,42.0,42.0,?
2017-06-01 18:06:10.954773,4535.90909046,12.3636363624,4214.96969655,0.0,3915.15151476,4.1212121208,3902.7878784,4100.6060602,4301.51515109,152.48484847,4471.51515107,490.424242375,4175.30302989,41.212121208,4349.42424199,1862.7878786,5004.6969692,2950.78787849,4094.93939353,3585.4545451,4427.21212077,8.2424242416,4212.90909049,8.2424242416,4841.39393891,4.1212121208,4476.1515147,3696.72727236,42.0,42.0,?
2017-06-01 18:06:10.958898,4539.51515106,12.3636363624,4213.424242,0.0,3915.66666628,4.1212121208,3899.69696931,4100.6060602,4307.69696927,152.48484847,4473.06060561,490.424242375,4176.84848443,41.212121208,4349.42424199,1862.7878786,5004.18181768,2950.78787849,4102.15151474,3585.4545451,4429.78787834,8.2424242416,4213.424242,8.2424242416,4845.51515103,4.1212121208,4471.51515107,3696.72727236,42.0,42.0,?
2017-06-01 18:06:10.967157,4538.99999955,12.3636363624,4217.54545412,0.0,3917.21212082,4.1212121208,3880.63636325,4100.6060602,4304.60606018,152.48484847,4471.51515107,490.424242375,4175.8181814,41.212121208,4348.90909047,1862.7878786,5003.15151465,2950.78787849,4105.24242383,3585.4545451,4426.69696925,8.2424242416,4211.36363594,8.2424242416,4841.39393891,4.1212121208,4470.48484804,3696.72727236,42.0,42.0,?
2017-06-01 18:06:10.975278,4528.18181773,12.3636363624,4218.06060564,0.0,3913.0909087,4.1212121208,3878.57575719,4100.6060602,4292.24242381,152.48484847,4465.33333289,490.424242375,4174.78787837,41.212121208,4346.3333329,1862.7878786,5004.18181768,2950.78787849,4101.12121171,3585.4545451,4428.2424238,8.2424242416,4210.84848443,8.2424242416,4839.84848436,4.1212121208,4474.60606016,3696.72727236,42.0,42.0,?
2017-06-01 18:06:10.982952,4545.69696924,12.3636363624,4221.15151473,0.0,3919.27272688,4.1212121208,3909.99999961,4100.6060602,4291.21212078,152.48484847,4463.27272683,490.424242375,4177.87878746,41.212121208,4349.9393935,1862.7878786,5011.39393889,2950.78787849,4100.09090868,3585.4545451,4429.78787834,8.2424242416,4211.36363594,8.2424242416,4845.51515103,4.1212121208,4475.12121167,3696.72727236,42.0,42.0,?
2017-06-01 18:06:10.995585,4538.48484803,12.3636363624,4214.96969655,0.0,3920.30302991,4.1212121208,3918.75757537,4100.6060602,4302.0303026,152.48484847,4465.33333289,490.424242375,4180.45454504,41.212121208,4358.18181775,1862.7878786,5012.42424192,2950.78787849,4104.72727232,3585.4545451,4425.66666622,8.2424242416,4213.93939352,8.2424242416,4839.33333285,4.1212121208,4474.60606016,3696.72727236,42.0,42.0,?
2017-06-01 18:06:11.000458,4533.8484844,12.3636363624,4217.03030261,0.0,3918.24242385,4.1212121208,3896.0909087,4100.6060602,4310.78787836,152.48484847,4470.99999955,490.424242375,4177.87878746,41.212121208,4356.12121169,1862.7878786,5004.6969692,2950.78787849,4106.27272686,3585.4545451,4427.72727228,8.2424242416,4215.48484806,8.2424242416,4838.81818133,4.1212121208,4470.99999955,3696.72727236,42.0,42.0,?
2017-06-01 18:06:11.005558,4549.81818136,12.3636363624,4221.15151473,0.0,3918.75757537,4.1212121208,3892.99999961,4100.6060602,4310.78787836,152.48484847,4471.51515107,490.424242375,4173.24242383,41.212121208,4351.99999956,1862.7878786,5002.12121162,2950.78787849,4103.69696929,3585.4545451,4433.90909047,8.2424242416,4213.424242,8.2424242416,4845.51515103,4.1212121208,4470.99999955,3696.72727236,42.0,42.0,?
2017-06-01 18:06:11.013483,4531.27272682,12.3636363624,4215.99999958,0.0,3915.15151476,4.1212121208,3897.63636325,4100.6060602,4303.57575715,152.48484847,4465.33333289,490.424242375,4172.21212079,41.212121208,4354.06060563,1862.7878786,5010.87878738,2950.78787849,4112.45454504,3585.4545451,4425.66666622,8.2424242416,4211.36363594,8.2424242416,4836.75757527,4.1212121208,4482.8484844,3696.72727236,42.0,42.0,?
2017-06-01 18:06:11.024220,4534.87878743,12.3636363624,4220.63636321,0.0,3918.75757537,4.1212121208,3887.84848446,4100.6060602,4290.69696927,152.48484847,4466.36363592,490.424242375,4174.78787837,41.212121208,4350.96969653,1862.7878786,5012.42424192,2950.78787849,4113.99999959,3585.4545451,4425.15151471,8.2424242416,4211.87878746,8.2424242416,4838.81818133,4.1212121208,4485.93939349,3696.72727236,42.0,42.0,?
2017-06-01 18:06:11.029183,4544.66666621,12.3636363624,4217.03030261,0.0,3917.72727234,4.1212121208,3902.7878784,4100.6060602,4294.30302987,152.48484847,4470.48484804,490.424242375,4177.36363595,41.212121208,4349.9393935,1862.7878786,5004.6969692,2950.78787849,4100.6060602,3585.4545451,4433.90909047,8.2424242416,4213.424242,8.2424242416,4847.57575709,4.1212121208,4478.21212076,3696.72727236,42.0,42.0,?
2017-06-01 18:06:11.036456,4535.90909046,12.3636363624,4213.424242,0.0,3916.18181779,4.1212121208,3924.93939355,4100.6060602,4307.18181775,152.48484847,4467.90909046,490.424242375,4177.36363595,41.212121208,4350.96969653,1862.7878786,4999.03030253,2950.78787849,4097.51515111,3585.4545451,4424.63636319,8.2424242416,4212.39393897,8.2424242416,4835.72727224,4.1212121208,4477.18181773,3696.72727236,42.0,42.0,?
2017-06-01 18:06:11.044510,4542.09090864,12.3636363624,4221.15151473,0.0,3920.81818143,4.1212121208,3914.12121173,4100.6060602,4303.57575715,152.48484847,4464.30302986,490.424242375,4176.33333292,41.212121208,4347.36363593,1862.7878786,5003.66666617,2950.78787849,4115.54545413,3585.4545451,4429.78787834,8.2424242416,4213.424242,8.2424242416,4841.39393891,4.1212121208,4484.39393895,3696.72727236,42.0,42.0,?
2017-06-01 18:06:11.053123,4534.87878743,12.3636363624,4216.51515109,0.0,3917.72727234,4.1212121208,3896.0909087,4100.6060602,4295.84848442,152.48484847,4466.87878743,490.424242375,4177.87878746,41.212121208,4348.90909047,1862.7878786,5014.48484798,2950.78787849,4130.99999959,3585.4545451,4432.36363592,8.2424242416,4214.45454503,8.2424242416,4845.51515103,4.1212121208,4493.1515147,3696.72727236,42.0,42.0,?
2017-06-01 18:06:11.071744,4542.09090864,12.3636363624,4218.06060564,0.0,3916.69696931,4.1212121208,3898.15151476,4100.6060602,4307.69696927,152.48484847,4471.51515107,490.424242375,4177.36363595,41.212121208,4353.03030259,1862.7878786,4996.45454495,2950.78787849,4117.60606019,3585.4545451,4431.84848441,8.2424242416,4213.424242,8.2424242416,4845.51515103,4.1212121208,4488.51515107,3696.72727236,42.0,42.0,?
2017-06-01 18:06:11.073480,4542.09090864,12.3636363624,4218.06060564,0.0,3916.69696931,4.1212121208,3898.15151476,4100.6060602,4307.69696927,152.48484847,4471.51515107,490.424242375,4179.42424201,41.212121208,4360.75757532,1862.7878786,4996.45454495,2950.78787849,4117.60606019,3585.4545451,4431.84848441,8.2424242416,4213.424242,8.2424242416,4845.51515103,4.1212121208,4482.33333289,3696.72727236,42.0,42.0,?
2017-06-01 18:06:11.079714,4533.33333288,12.3636363624,4215.99999958,0.0,3916.69696931,4.1212121208,3905.36363597,4100.6060602,4308.7272723,152.48484847,4467.39393895,490.424242375,4181.48484807,41.212121208,4365.90909047,1862.7878786,5005.21212071,2950.78787849,4116.57575716,3585.4545451,4432.87878744,8.2424242416,4211.36363594,8.2424242416,4845.51515103,4.1212121208,4483.87878743,3696.72727236,42.0,42.0,?
2017-06-01 18:06:11.083432,4543.12121167,12.3636363624,4219.09090867,0.0,3920.81818143,4.1212121208,3909.48484809,4100.6060602,4300.99999957,152.48484847,4466.87878743,490.424242375,4180.45454504,41.212121208,4362.81818138,1862.7878786,5022.21212071,2950.78787849,4113.48484807,3585.4545451,4425.66666622,8.2424242416,4210.33333291,8.2424242416,4838.81818133,4.1212121208,4481.81818137,3696.72727236,42.0,42.0,?
2017-06-01 18:06:11.091402,4535.90909046,12.3636363624,4216.51515109,0.0,3916.18181779,4.1212121208,3909.48484809,4100.6060602,4306.15151472,152.48484847,4468.42424198,490.424242375,4182.5151511,41.212121208,4360.24242381,1862.7878786,5021.69696919,2950.78787849,4112.96969656,3585.4545451,4431.84848441,8.2424242416,4211.87878746,8.2424242416,4840.87878739,4.1212121208,4478.72727228,3696.72727236,42.0,42.0,?
2017-06-01 18:06:11.101206,4538.48484803,12.3636363624,4218.57575715,0.0,3916.69696931,4.1212121208,3896.0909087,4100.6060602,4303.57575715,152.48484847,4467.90909046,490.424242375,4179.42424201,41.212121208,4353.54545411,1862.7878786,4992.84848435,2950.78787849,4100.6060602,3585.4545451,4427.72727228,8.2424242416,4212.39393897,8.2424242416,4837.7878783,4.1212121208,4474.60606016,3696.72727236,42.0,42.0,?
2017-06-01 18:06:11.108510,4544.66666621,12.3636363624,4218.57575715,0.0,3917.21212082,4.1212121208,3896.60606022,4100.6060602,4296.87878745,152.48484847,4463.27272683,490.424242375,4172.72727231,41.212121208,4346.84848441,1862.7878786,4990.78787829,2950.78787849,4103.69696929,3585.4545451,4429.27272683,8.2424242416,4213.424242,8.2424242416,4840.87878739,4.1212121208,4468.42424198,3696.72727236,42.0,42.0,?
2017-06-01 18:06:11.115281,4537.454545,12.3636363624,4218.06060564,0.0,3916.69696931,4.1212121208,3904.84848446,4100.6060602,4295.84848442,152.48484847,4462.2424238,490.424242375,4174.27272686,41.212121208,4344.78787835,1862.7878786,5016.54545404,2950.78787849,4119.15151474,3585.4545451,4438.5454541,8.2424242416,4212.90909049,8.2424242416,4850.66666618,4.1212121208,4463.78787834,3696.72727236,42.0,42.0,?
2017-06-01 18:06:11.122471,4537.454545,12.3636363624,4220.63636321,0.0,3917.72727234,4.1212121208,3890.42424204,4100.6060602,4290.18181775,152.48484847,4465.8484844,490.424242375,4177.36363595,41.212121208,4343.75757532,1862.7878786,5009.84848435,2950.78787849,4105.24242383,3585.4545451,4424.12121168,8.2424242416,4208.78787837,8.2424242416,4838.81818133,4.1212121208,4461.21212077,3696.72727236,42.0,42.0,?
2017-06-01 18:06:11.131161,4531.27272682,12.3636363624,4214.45454503,0.0,3915.66666628,4.1212121208,3892.99999961,4100.6060602,4293.27272684,152.48484847,4465.33333289,490.424242375,4177.36363595,41.212121208,4350.96969653,1862.7878786,4995.93939344,2950.78787849,4096.48484808,3585.4545451,4423.60606016,8.2424242416,4212.90909049,8.2424242416,4837.7878783,4.1212121208,4467.90909046,3696.72727236,42.0,42.0,?
2017-06-01 18:06:11.138885,4544.1515147,12.3636363624,4217.54545412,0.0,3920.81818143,4.1212121208,3902.7878784,4100.6060602,4309.75757533,152.48484847,4466.87878743,490.424242375,4179.42424201,41.212121208,4355.60606017,1862.7878786,5003.15151465,2950.78787849,4105.24242383,3585.4545451,4435.96969653,8.2424242416,4217.03030261,8.2424242416,4852.72727224,4.1212121208,4472.03030258,3696.72727236,42.0,42.0,?
2017-06-01 18:06:11.148500,4538.48484803,12.3636363624,4215.99999958,0.0,3918.24242385,4.1212121208,3886.30302991,4100.6060602,4313.36363593,152.48484847,4468.93939349,490.424242375,4181.99999958,41.212121208,4352.51515108,1862.7878786,5013.45454495,2950.78787849,4100.09090868,3585.4545451,4416.39393895,8.2424242416,4211.87878746,8.2424242416,4830.57575709,4.1212121208,4469.96969652,3696.72727236,42.0,42.0,?
2017-06-01 18:06:11.154077,4534.87878743,12.3636363624,4214.45454503,0.0,3911.54545415,4.1212121208,3882.69696931,4100.6060602,4291.7272723,152.48484847,4464.30302986,490.424242375,4181.99999958,41.212121208,4353.54545411,1862.7878786,5009.84848435,2950.78787849,4089.27272686,3585.4545451,4431.33333289,8.2424242416,4212.39393897,8.2424242416,4837.27272679,4.1212121208,4472.5454541,3696.72727236,42.0,42.0,?
2017-06-01 18:06:11.162969,4550.84848439,12.3636363624,4220.1212117,0.0,3917.72727234,4.1212121208,3906.393939,4100.6060602,4284.51515109,152.48484847,4462.2424238,490.424242375,4177.36363595,41.212121208,4355.09090866,1862.7878786,4996.96969647,2950.78787849,4095.45454505,3585.4545451,4438.5454541,8.2424242416,4212.90909049,8.2424242416,4852.21212073,4.1212121208,4477.18181773,3696.72727236,42.0,42.0,?
2017-06-01 18:06:11.169593,4533.33333288,12.3636363624,4215.48484806,0.0,3917.21212082,4.1212121208,3913.0909087,4100.6060602,4301.51515109,152.48484847,4465.8484844,490.424242375,4179.42424201,41.212121208,4356.12121169,1862.7878786,5005.72727223,2950.78787849,4110.9090905,3585.4545451,4416.90909047,8.2424242416,4211.36363594,8.2424242416,4835.72727224,4.1212121208,4479.24242379,3696.72727236,42.0,42.0,?
2017-06-01 18:06:11.177666,4543.12121167,12.3636363624,4219.60606018,0.0,3917.21212082,4.1212121208,3890.42424204,4100.6060602,4301.51515109,152.48484847,4466.36363592,490.424242375,4189.21212079,41.212121208,4356.12121169,1862.7878786,5018.6060601,2950.78787849,4107.81818141,3585.4545451,4433.39393895,8.2424242416,4215.48484806,8.2424242416,4848.09090861,4.1212121208,4472.5454541,3696.72727236,42.0,42.0,?
2017-06-01 18:06:11.188170,4549.30302985,12.3636363624,4220.1212117,0.0,3916.18181779,4.1212121208,3884.75757537,4100.6060602,4296.87878745,152.48484847,4466.87878743,490.424242375,4190.24242382,41.212121208,4357.66666623,1862.7878786,5007.27272677,2950.78787849,4093.39393898,3585.4545451,4428.75757531,8.2424242416,4214.45454503,8.2424242416,4844.484848,4.1212121208,4465.33333289,3696.72727236,42.0,42.0,?
2017-06-01 18:06:11.194479,4529.72727227,12.3636363624,4215.48484806,0.0,3912.57575718,4.1212121208,3902.7878784,4100.6060602,4309.24242381,152.48484847,4470.99999955,490.424242375,4184.06060564,41.212121208,4364.36363593,1862.7878786,4995.42424192,2950.78787849,4087.2121208,3585.4545451,4424.12121168,8.2424242416,4212.90909049,8.2424242416,4837.7878783,4.1212121208,4467.39393895,3696.72727236,42.0,42.0,?
2017-06-01 18:06:11.201771,4541.57575712,12.3636363624,4221.15151473,0.0,3918.24242385,4.1212121208,3905.36363597,4100.6060602,4305.12121169,152.48484847,4465.33333289,490.424242375,4179.42424201,41.212121208,4360.75757532,1862.7878786,5003.15151465,2950.78787849,4086.18181777,3585.4545451,4431.84848441,8.2424242416,4212.39393897,8.2424242416,4841.90909042,4.1212121208,4462.75757531,3696.72727236,42.0,42.0,?
2017-06-01 18:06:11.209522,4537.96969652,12.3636363624,4216.51515109,0.0,3916.69696931,4.1212121208,3902.7878784,4100.6060602,4289.66666624,152.48484847,4459.15151471,490.424242375,4181.48484807,41.212121208,4351.99999956,1862.7878786,5001.09090859,2950.78787849,4094.42424201,3585.4545451,4425.15151471,8.2424242416,4211.36363594,8.2424242416,4837.27272679,4.1212121208,4457.09090865,3696.72727236,42.0,42.0,?
2017-06-01 18:06:11.219610,4536.93939349,12.3636363624,4215.48484806,0.0,3918.24242385,4.1212121208,3894.03030264,4100.6060602,4289.66666624,152.48484847,4464.30302986,490.424242375,4182.5151511,41.212121208,4348.90909047,1862.7878786,4972.75757526,2950.78787849,4093.9090905,3585.4545451,4430.30302986,8.2424242416,4212.90909049,8.2424242416,4846.03030255,4.1212121208,4461.21212077,3696.72727236,42.0,42.0,?
2017-06-01 18:06:11.225220,4541.57575712,12.3636363624,4217.54545412,0.0,3921.84848446,4.1212121208,3867.24242386,4100.6060602,4296.36363593,152.48484847,4464.30302986,490.424242375,4174.27272686,41.212121208,4349.9393935,1862.7878786,4973.78787829,2950.78787849,4093.9090905,3585.4545451,4429.27272683,8.2424242416,4211.36363594,8.2424242416,4842.93939346,4.1212121208,4467.90909046,3696.72727236,42.0,42.0,?
2017-06-01 18:06:11.232638,4532.30302985,12.3636363624,4213.93939352,0.0,3915.66666628,4.1212121208,3872.90909052,4100.6060602,4300.99999957,152.48484847,4457.09090865,490.424242375,4175.30302989,41.212121208,4351.99999956,1862.7878786,5013.45454495,2950.78787849,4115.54545413,3585.4545451,4429.78787834,8.2424242416,4212.39393897,8.2424242416,4839.33333285,4.1212121208,4470.48484804,3696.72727236,42.0,42.0,?
2017-06-01 18:06:11.240217,4544.1515147,12.3636363624,4219.60606018,0.0,3917.72727234,4.1212121208,3914.12121173,4100.6060602,4300.48484805,152.48484847,4461.72727228,490.424242375,4177.87878746,41.212121208,4351.99999956,1862.7878786,5021.18181768,2950.78787849,4122.24242383,3585.4545451,4428.75757531,8.2424242416,4215.99999958,8.2424242416,4841.90909042,4.1212121208,4464.81818137,3696.72727236,42.0,42.0,?
2017-06-01 18:06:11.247904,4541.57575712,12.3636363624,4219.60606018,0.0,3919.7878784,4.1212121208,3925.45454506,4100.6060602,4299.45454502,152.48484847,4468.93939349,490.424242375,4170.15151473,41.212121208,4359.72727229,1862.7878786,5000.57575708,2950.78787849,4110.39393898,3585.4545451,4427.21212077,8.2424242416,4214.45454503,8.2424242416,4840.36363588,4.1212121208,4461.72727228,3696.72727236,42.0,42.0,?
2017-06-01 18:06:11.257348,4535.90909046,12.3636363624,4218.06060564,0.0,3918.75757537,4.1212121208,3899.18181779,4100.6060602,4296.36363593,152.48484847,4466.87878743,490.424242375,4170.66666625,41.212121208,4363.84848441,1862.7878786,5000.06060556,2950.78787849,4105.24242383,3585.4545451,4432.87878744,8.2424242416,4210.84848443,8.2424242416,4846.03030255,4.1212121208,4463.27272683,3696.72727236,42.0,42.0,?
2017-06-01 18:06:11.263624,4543.63636318,12.3636363624,4220.63636321,0.0,3917.72727234,4.1212121208,3892.99999961,4100.6060602,4300.99999957,152.48484847,4464.30302986,490.424242375,4178.90909049,41.212121208,4360.75757532,1862.7878786,5011.90909041,2950.78787849,4108.33333292,3585.4545451,4428.2424238,8.2424242416,4209.30302988,8.2424242416,4843.45454497,4.1212121208,4465.33333289,3696.72727236,42.0,42.0,?
2017-06-01 18:06:11.271429,4537.96969652,12.3636363624,4214.45454503,0.0,3916.18181779,4.1212121208,3900.21212082,4100.6060602,4313.87878745,152.48484847,4467.90909046,490.424242375,4180.45454504,41.212121208,4366.9393935,1862.7878786,5015.51515101,2950.78787849,4116.06060565,3585.4545451,4428.2424238,8.2424242416,4213.424242,8.2424242416,4839.84848436,4.1212121208,4469.45454501,3696.72727236,42.0,42.0,?
2017-06-01 18:06:11.281201,4547.24242379,12.3636363624,4215.99999958,0.0,3918.24242385,4.1212121208,3885.27272688,4100.6060602,4307.18181775,152.48484847,4470.99999955,490.424242375,4175.8181814,41.212121208,4359.72727229,1862.7878786,5002.63636314,2950.78787849,4115.54545413,3585.4545451,4430.81818138,8.2424242416,4213.424242,8.2424242416,4843.45454497,4.1212121208,4462.75757531,3696.72727236,42.0,42.0,?
2017-06-01 18:06:11.287475,4543.12121167,4.1212121208,4217.03030261,0.0,3915.15151476,4.1212121208,3887.33333294,4100.6060602,4286.57575715,152.48484847,4463.78787834,490.424242375,4174.78787837,41.212121208,4343.75757532,1862.7878786,4996.45454495,2950.78787849,4109.87878747,3585.4545451,4428.2424238,8.2424242416,4211.87878746,8.2424242416,4839.33333285,4.1212121208,4459.15151471,3696.72727236,42.0,42.0,?
2017-06-01 18:06:11.295445,4535.39393894,4.1212121208,4215.48484806,4.1212121208,3916.69696931,4.1212121208,3901.24242385,4100.6060602,4281.424242,152.48484847,4455.5454541,490.424242375,4176.33333292,41.212121208,4349.9393935,1862.7878786,5005.21212071,2950.78787849,4107.81818141,3585.4545451,4430.30302986,8.2424242416,4213.424242,8.2424242416,4836.75757527,4.1212121208,4472.5454541,3696.72727236,42.0,42.0,?
2017-06-01 18:06:11.302491,4545.18181773,4.1212121208,4215.99999958,4.1212121208,3920.30302991,4.1212121208,3895.06060567,4100.6060602,4299.96969654,152.48484847,4459.66666622,490.424242375,4179.42424201,41.212121208,4367.45454502,1862.7878786,5008.3030298,2950.78787849,4115.54545413,3585.4545451,4424.63636319,8.2424242416,4212.39393897,8.2424242416,4837.7878783,4.1212121208,4484.39393895,3696.72727236,42.0,42.0,?
2017-06-01 18:06:11.312244,4536.42424197,4.1212121208,4212.90909049,4.1212121208,3912.57575718,12.3636363624,3896.0909087,4100.6060602,4316.45454502,152.48484847,4464.81818137,490.424242375,4184.06060564,41.212121208,4370.54545411,1862.7878786,5011.90909041,2950.78787849,4129.96969656,3585.4545451,4425.66666622,8.2424242416,4210.33333291,8.2424242416,4840.36363588,4.1212121208,4482.8484844,3696.72727236,42.0,42.0,?
2017-06-01 18:06:11.319195,4540.54545409,4.1212121208,4219.09090867,4.1212121208,3916.18181779,12.3636363624,3899.69696931,4108.84848444,4311.30302987,152.48484847,4465.8484844,490.424242375,4179.93939352,41.212121208,4357.66666623,1862.7878786,5004.18181768,2950.78787849,4123.27272686,3585.4545451,4430.81818138,8.2424242416,4210.33333291,8.2424242416,4842.93939346,4.1212121208,4473.06060561,3696.72727236,42.0,42.0,?
2017-06-01 18:06:11.325546,4543.12121167,4.1212121208,4219.60606018,4.1212121208,3919.7878784,12.3636363624,3894.54545416,4108.84848444,4305.63636321,148.363636349,4465.33333289,490.424242375,4172.72727231,41.212121208,4352.51515108,1862.7878786,4984.09090859,2950.78787849,4110.39393898,3585.4545451,4426.69696925,8.2424242416,4212.39393897,8.2424242416,4839.33333285,4.1212121208,4469.96969652,3696.72727236,42.0,42.0,?
2017-06-01 18:06:11.334384,4534.87878743,4.1212121208,4217.54545412,4.1212121208,3914.63636324,12.3636363624,3896.60606022,4108.84848444,4300.48484805,148.363636349,4463.27272683,478.060606013,4174.27272686,41.212121208,4357.66666623,1862.7878786,4990.27272677,2950.78787849,4121.2121208,3585.4545451,4427.21212077,8.2424242416,4213.93939352,8.2424242416,4839.84848436,4.1212121208,4468.93939349,3696.72727236,42.0,42.0,?
2017-06-01 18:06:11.341418,4542.09090864,4.1212121208,4219.60606018,4.1212121208,3915.66666628,12.3636363624,3895.06060567,4108.84848444,4288.12121169,148.363636349,4462.75757531,478.060606013,4176.84848443,61.818181812,4351.48484805,1862.7878786,5017.57575707,2950.78787849,4127.9090905,3585.4545451,4428.2424238,8.2424242416,4211.87878746,8.2424242416,4841.90909042,4.1212121208,4464.81818137,3696.72727236,42.0,42.0,?
2017-06-01 18:06:11.351025,4534.36363591,4.1212121208,4214.45454503,4.1212121208,3915.66666628,12.3636363624,3888.36363597,4108.84848444,4291.21212078,148.363636349,4465.8484844,478.060606013,4177.87878746,61.818181812,4348.39393896,1866.90909072,5018.6060601,2950.78787849,4119.66666625,3585.4545451,4429.27272683,8.2424242416,4212.39393897,8.2424242416,4839.84848436,4.1212121208,4467.90909046,3696.72727236,42.0,42.0,?
2017-06-01 18:06:11.357442,4543.12121167,4.1212121208,4219.09090867,4.1212121208,3917.72727234,12.3636363624,3885.7878784,4108.84848444,4290.18181775,148.363636349,4466.87878743,478.060606013,4177.36363595,61.818181812,4354.06060563,1866.90909072,4987.6969692,2913.69696941,4112.96969656,3585.4545451,4428.75757531,8.2424242416,4212.39393897,8.2424242416,4839.33333285,4.1212121208,4467.90909046,3696.72727236,42.0,42.0,?
2017-06-01 18:06:11.366153,4548.78787833,4.1212121208,4219.09090867,4.1212121208,3916.18181779,12.3636363624,3899.69696931,4108.84848444,4292.24242381,148.363636349,4462.2424238,478.060606013,4179.42424201,61.818181812,4361.27272684,1866.90909072,4993.87878738,2913.69696941,4115.54545413,3585.4545451,4426.18181774,8.2424242416,4210.33333291,8.2424242416,4838.81818133,4.1212121208,4465.33333289,3696.72727236,42.0,42.0,?
2017-06-01 18:06:11.373046,4533.33333288,4.1212121208,4212.39393897,4.1212121208,3914.63636324,12.3636363624,3912.57575718,4108.84848444,4307.69696927,148.363636349,4458.12121168,478.060606013,4180.45454504,61.818181812,4368.48484805,1866.90909072,5026.84848435,2913.69696941,4116.06060565,3585.4545451,4429.78787834,8.2424242416,4211.36363594,8.2424242416,4843.45454497,4.1212121208,4465.8484844,3696.72727236,42.0,42.0,?
2017-06-01 18:06:11.380650,4541.06060561,4.1212121208,4219.60606018,4.1212121208,3919.7878784,12.3636363624,3897.63636325,4108.84848444,4302.0303026,148.363636349,4456.57575713,478.060606013,4175.8181814,61.818181812,4358.18181775,1866.90909072,5012.42424192,2913.69696941,4107.30302989,3585.4545451,4428.75757531,8.2424242416,4211.36363594,12.3636363624,4844.99999952,4.1212121208,4458.63636319,3696.72727236,42.0,42.0,?
2017-06-01 18:06:11.389053,4539.51515106,4.1212121208,4218.06060564,4.1212121208,3916.18181779,12.3636363624,3890.93939355,4108.84848444,4292.75757533,148.363636349,4457.60606016,478.060606013,4180.96969655,61.818181812,4347.87878744,1866.90909072,4990.78787829,2913.69696941,4111.42424201,3585.4545451,4427.72727228,8.2424242416,4209.30302988,12.3636363624,4839.84848436,4.1212121208,4455.5454541,3696.72727236,42.0,42.0,?
2017-06-01 18:06:11.398004,4540.03030258,4.1212121208,4214.96969655,4.1212121208,3916.18181779,12.3636363624,3898.15151476,4108.84848444,4295.3333329,148.363636349,4460.69696925,478.060606013,4186.63636322,61.818181812,4355.09090866,1866.90909072,5003.15151465,2913.69696941,4119.15151474,3589.57575722,4428.75757531,8.2424242416,4209.8181814,12.3636363624,4840.36363588,4.1212121208,4458.12121168,3696.72727236,42.0,42.0,?
2017-06-01 18:06:11.405415,4543.12121167,4.1212121208,4215.48484806,4.1212121208,3920.30302991,12.3636363624,3892.4848481,4108.84848444,4294.30302987,148.363636349,4461.21212077,478.060606013,4177.36363595,61.818181812,4354.06060563,1866.90909072,5011.39393889,2913.69696941,4116.06060565,3589.57575722,4426.69696925,0.0,4211.87878746,12.3636363624,4841.39393891,4.1212121208,4455.03030258,3696.72727236,42.0,42.0,?
2017-06-01 18:06:11.413469,4531.27272682,4.1212121208,4214.45454503,4.1212121208,3919.27272688,12.3636363624,3890.93939355,4108.84848444,4296.87878745,148.363636349,4458.12121168,478.060606013,4171.18181776,61.818181812,4341.18181775,1866.90909072,5004.18181768,2913.69696941,4119.15151474,3589.57575722,4429.78787834,0.0,4212.90909049,12.3636363624,4840.87878739,4.1212121208,4451.93939349,3696.72727236,42.0,42.0,?
2017-06-01 18:06:11.419392,4544.66666621,4.1212121208,4221.15151473,4.1212121208,3920.30302991,12.3636363624,3899.18181779,4108.84848444,4299.45454502,148.363636349,4460.18181774,478.060606013,4176.33333292,61.818181812,4341.18181775,1866.90909072,4990.78787829,2913.69696941,4111.93939353,3589.57575722,4430.30302986,0.0,4211.36363594,12.3636363624,4840.36363588,4.1212121208,4453.99999955,3696.72727236,42.0,42.0,?
2017-06-01 18:06:11.427763,4544.66666621,4.1212121208,4215.48484806,4.1212121208,3914.63636324,12.3636363624,3900.21212082,4108.84848444,4291.7272723,148.363636349,4460.69696925,478.060606013,4179.93939352,61.818181812,4358.69696926,1866.90909072,4980.9999995,2913.69696941,4096.99999959,3589.57575722,4429.27272683,0.0,4211.87878746,12.3636363624,4840.87878739,4.1212121208,4462.75757531,3696.72727236,42.0,42.0,?
2017-06-01 18:06:11.436241,4536.93939349,4.1212121208,4213.93939352,4.1212121208,3915.66666628,12.3636363624,3879.60606022,4108.84848444,4278.33333291,148.363636349,4453.48484804,478.060606013,4176.33333292,61.818181812,4356.6363632,1866.90909072,4990.78787829,2913.69696941,4104.2121208,3589.57575722,4429.78787834,0.0,4214.45454503,12.3636363624,4843.96969649,4.1212121208,4462.2424238,3696.72727236,42.0,42.0,?
2017-06-01 18:06:11.444070,4541.06060561,4.1212121208,4220.63636321,4.1212121208,3919.7878784,12.3636363624,3867.24242386,4108.84848444,4277.30302988,148.363636349,4449.87878743,478.060606013,4172.21212079,61.818181812,4348.39393896,1866.90909072,5003.15151465,2913.69696941,4122.24242383,3589.57575722,4427.21212077,0.0,4211.36363594,12.3636363624,4842.42424194,4.1212121208,4453.48484804,3696.72727236,42.0,42.0,?
2017-06-01 18:06:11.451909,4532.30302985,4.1212121208,4217.03030261,4.1212121208,3915.15151476,12.3636363624,3886.81818143,4108.84848444,4283.99999957,148.363636349,4451.93939349,478.060606013,4175.30302989,61.818181812,4358.69696926,1866.90909072,5004.6969692,2913.69696941,4118.63636322,3589.57575722,4430.81818138,0.0,4212.39393897,12.3636363624,4842.42424194,4.1212121208,4455.03030258,3696.72727236,42.0,42.0,?
2017-06-01 18:06:11.459521,4542.09090864,4.1212121208,4218.57575715,4.1212121208,3919.27272688,12.3636363624,3902.7878784,4108.84848444,4288.12121169,148.363636349,4453.48484804,478.060606013,4179.42424201,61.818181812,4353.03030259,1866.90909072,5004.18181768,2913.69696941,4106.78787838,3589.57575722,4430.81818138,0.0,4218.57575715,12.3636363624,4843.45454497,4.1212121208,4456.57575713,3696.72727236,42.0,42.0,?
2017-06-01 18:06:11.467278,4541.57575712,4.1212121208,4217.54545412,4.1212121208,3920.30302991,12.3636363624,3893.51515113,4108.84848444,4297.90909048,148.363636349,4453.99999955,478.060606013,4179.93939352,61.818181812,4338.60606017,1866.90909072,4999.03030253,2913.69696941,4111.42424201,3589.57575722,4427.21212077,0.0,4215.99999958,12.3636363624,4840.87878739,4.1212121208,4453.99999955,3696.72727236,42.0,42.0,?
2017-06-01 18:06:11.475401,4532.81818136,4.1212121208,4216.51515109,4.1212121208,3918.75757537,12.3636363624,3886.81818143,4108.84848444,4300.48484805,148.363636349,4452.96969652,478.060606013,4179.42424201,61.818181812,4341.69696926,1866.90909072,4983.06060556,2913.69696941,4108.33333292,3589.57575722,4430.81818138,0.0,4207.75757534,12.3636363624,4841.90909042,4.1212121208,4453.99999955,3696.72727236,42.0,42.0,?
2017-06-01 18:06:11.483573,4540.54545409,4.1212121208,4218.06060564,4.1212121208,3919.27272688,12.3636363624,3897.12121173,4108.84848444,4297.39393896,148.363636349,4451.93939349,478.060606013,4179.93939352,61.818181812,4354.06060563,1866.90909072,4978.93939344,2913.69696941,4102.15151474,3589.57575722,4430.30302986,0.0,4208.78787837,12.3636363624,4841.39393891,4.1212121208,4458.63636319,3696.72727236,42.0,42.0,?
2017-06-01 18:06:11.491196,4534.36363591,4.1212121208,4214.45454503,4.1212121208,3914.63636324,12.3636363624,3905.36363597,4108.84848444,4299.45454502,148.363636349,4452.45454501,478.060606013,4180.96969655,61.818181812,4361.78787835,1866.90909072,4999.03030253,2913.69696941,4110.39393898,3589.57575722,4427.72727228,0.0,4213.424242,12.3636363624,4838.30302982,4.1212121208,4466.36363592,3696.72727236,42.0,42.0,?
2017-06-01 18:06:11.499263,4542.60606015,4.1212121208,4219.09090867,4.1212121208,3917.21212082,12.3636363624,3900.21212082,4108.84848444,4291.21212078,148.363636349,4456.57575713,478.060606013,4180.96969655,61.818181812,4351.99999956,1866.90909072,5001.09090859,2913.69696941,4105.75757535,3589.57575722,4426.69696925,0.0,4210.84848443,12.3636363624,4838.81818133,4.1212121208,4464.30302986,3696.72727236,42.0,42.0,?
2017-06-01 18:06:11.506391,4542.09090864,4.1212121208,4217.03030261,4.1212121208,3919.27272688,12.3636363624,3894.54545416,4108.84848444,4282.45454503,148.363636349,4454.51515107,478.060606013,4179.93939352,61.818181812,4344.78787835,1866.90909072,4990.78787829,2913.69696941,4102.15151474,3589.57575722,4428.75757531,0.0,4209.8181814,12.3636363624,4839.33333285,4.1212121208,4457.09090865,3696.72727236,42.0,42.0,?
2017-06-01 18:06:11.514324,4531.27272682,4.1212121208,4215.48484806,4.1212121208,3917.72727234,12.3636363624,3893.51515113,4108.84848444,4286.06060563,148.363636349,4448.33333289,478.060606013,4178.39393898,61.818181812,4347.36363593,1866.90909072,4992.84848435,2913.69696941,4107.81818141,3589.57575722,4431.84848441,0.0,4214.96969655,12.3636363624,4842.93939346,4.1212121208,4458.63636319,3696.72727236,42.0,42.0,?
2017-06-01 18:06:11.522179,4543.12121167,4.1212121208,4220.63636321,4.1212121208,3918.75757537,12.3636363624,3891.96969658,4108.84848444,4285.54545412,148.363636349,4448.33333289,478.060606013,4176.33333292,61.818181812,4340.66666623,1866.90909072,4995.42424192,2913.69696941,4100.6060602,3589.57575722,4427.21212077,0.0,4213.424242,12.3636363624,4841.90909042,4.1212121208,4463.27272683,3696.72727236,42.0,42.0,?
2017-06-01 18:06:11.531906,4539.51515106,4.1212121208,4215.99999958,4.1212121208,3915.15151476,12.3636363624,3891.96969658,4108.84848444,4282.45454503,148.363636349,4449.87878743,478.060606013,4178.39393898,61.818181812,4336.54545411,1866.90909072,4996.45454495,2913.69696941,4096.99999959,3589.57575722,4429.27272683,0.0,4211.87878746,12.3636363624,4839.84848436,4.1212121208,4462.2424238,3696.72727236,42.0,42.0,?
2017-06-01 18:06:11.538238,4543.63636318,4.1212121208,4216.51515109,4.1212121208,3916.69696931,12.3636363624,3888.87878749,4108.84848444,4286.57575715,148.363636349,4452.45454501,478.060606013,4177.87878746,61.818181812,4340.66666623,1866.90909072,4988.72727223,2913.69696941,4098.54545414,3589.57575722,4432.36363592,0.0,4212.39393897,12.3636363624,4844.484848,4.1212121208,4450.90909046,3696.72727236,42.0,42.0,?
2017-06-01 18:06:11.546986,4545.18181773,4.1212121208,4216.51515109,4.1212121208,3917.21212082,12.3636363624,3892.99999961,4108.84848444,4298.93939351,148.363636349,4456.06060561,478.060606013,4172.21212079,61.818181812,4342.72727229,1866.90909072,4982.03030253,2913.69696941,4094.42424201,3589.57575722,4428.2424238,0.0,4210.84848443,12.3636363624,4841.39393891,4.1212121208,4445.75757531,3696.72727236,42.0,42.0,?
2017-06-01 18:06:11.552452,4534.36363591,4.1212121208,4213.93939352,4.1212121208,3913.60606021,12.3636363624,3906.90909052,4108.84848444,4303.57575715,148.363636349,4457.09090865,478.060606013,4172.21212079,61.818181812,4338.09090866,1866.90909072,4981.51515102,2913.69696941,4086.69696929,3589.57575722,4429.78787834,0.0,4211.87878746,12.3636363624,4835.72727224,4.1212121208,4452.45454501,3696.72727236,42.0,42.0,?
2017-06-01 18:06:11.560453,4543.12121167,4.1212121208,4218.57575715,4.1212121208,3916.69696931,12.3636363624,3897.63636325,4108.84848444,4295.84848442,148.363636349,4453.48484804,478.060606013,4172.72727231,61.818181812,4333.45454502,1866.90909072,4974.81818132,2913.69696941,4078.96969656,3589.57575722,4429.27272683,0.0,4211.87878746,12.3636363624,4837.7878783,4.1212121208,4453.48484804,3696.72727236,42.0,42.0,?
2017-06-01 18:06:11.569447,4535.39393894,4.1212121208,4214.96969655,4.1212121208,3916.69696931,12.3636363624,3873.42424204,4108.84848444,4293.78787836,148.363636349,4447.30302986,478.060606013,4171.69696928,61.818181812,4343.24242381,1866.90909072,4978.93939344,2913.69696941,4089.27272686,3589.57575722,4426.69696925,0.0,4210.33333291,12.3636363624,4839.84848436,4.1212121208,4456.57575713,3696.72727236,42.0,42.0,?
2017-06-01 18:06:11.577670,4535.90909046,4.1212121208,4215.99999958,4.1212121208,3918.24242385,12.3636363624,3882.18181779,4108.84848444,4289.15151472,148.363636349,4445.2424238,478.060606013,4172.21212079,61.818181812,4348.39393896,1866.90909072,4981.51515102,2913.69696941,4093.39393898,3589.57575722,4428.2424238,0.0,4210.84848443,12.3636363624,4838.81818133,4.1212121208,4460.69696925,3696.72727236,42.0,42.0,?
2017-06-01 18:06:11.584408,4542.60606015,4.1212121208,4218.57575715,4.1212121208,3918.24242385,12.3636363624,3920.30302991,4108.84848444,4283.48484806,148.363636349,4445.75757531,478.060606013,4172.21212079,61.818181812,4345.81818138,1866.90909072,4981.51515102,2913.69696941,4088.75757535,3589.57575722,4428.2424238,0.0,4212.90909049,12.3636363624,4839.33333285,4.1212121208,4462.2424238,3696.72727236,42.0,42.0,?
2017-06-01 18:06:11.592010,4532.81818136,4.1212121208,4216.51515109,4.1212121208,3915.66666628,12.3636363624,3928.54545415,4108.84848444,4291.7272723,148.363636349,4451.42424198,478.060606013,4180.45454504,61.818181812,4353.54545411,1866.90909072,5002.12121162,2913.69696941,4105.75757535,3589.57575722,4429.27272683,0.0,4214.96969655,12.3636363624,4842.42424194,4.1212121208,4472.03030258,3696.72727236,42.0,42.0,?
2017-06-01 18:06:11.599969,4541.57575712,4.1212121208,4221.15151473,4.1212121208,3921.33333294,12.3636363624,3900.72727234,4108.84848444,4297.39393896,148.363636349,4457.60606016,478.060606013,4188.18181776,61.818181812,4354.06060563,1866.90909072,5008.81818132,2913.69696941,4116.57575716,3589.57575722,4427.21212077,0.0,4211.36363594,12.3636363624,4842.42424194,4.1212121208,4478.21212076,3696.72727236,42.0,42.0,?
2017-06-01 18:06:11.608521,4540.03030258,4.1212121208,4218.57575715,4.1212121208,3918.75757537,12.3636363624,3884.75757537,4108.84848444,4289.66666624,148.363636349,4451.93939349,478.060606013,4184.06060564,61.818181812,4350.45454502,1866.90909072,4991.81818132,2913.69696941,4103.18181777,3589.57575722,4428.75757531,0.0,4209.8181814,12.3636363624,4839.84848436,4.1212121208,4475.12121167,3696.72727236,42.0,42.0,?
2017-06-01 18:06:11.616093,4541.57575712,4.1212121208,4219.09090867,4.1212121208,3915.15151476,12.3636363624,3879.0909087,4108.84848444,4280.39393897,148.363636349,4446.27272683,478.060606013,4177.36363595,61.818181812,4353.54545411,1866.90909072,4992.33333283,2913.69696941,4094.42424201,3589.57575722,4429.78787834,0.0,4211.87878746,12.3636363624,4841.39393891,4.1212121208,4469.96969652,3696.72727236,42.0,42.0,?
2017-06-01 18:06:11.623830,4547.7575753,4.1212121208,4221.66666624,4.1212121208,3916.69696931,12.3636363624,3890.93939355,4108.84848444,4286.06060563,148.363636349,4449.87878743,478.060606013,4178.90909049,61.818181812,4354.57575714,1866.90909072,5009.84848435,2913.69696941,4101.63636323,3589.57575722,4425.66666622,0.0,4211.36363594,12.3636363624,4839.84848436,4.1212121208,4469.96969652,3696.72727236,42.0,42.0,?
2017-06-01 18:06:11.631671,4534.36363591,4.1212121208,4217.03030261,4.1212121208,3916.18181779,12.3636363624,3914.63636324,4108.84848444,4297.90909048,148.363636349,4453.99999955,478.060606013,4184.57575716,61.818181812,4354.06060563,1866.90909072,5013.45454495,2913.69696941,4112.96969656,3589.57575722,4428.2424238,0.0,4212.90909049,12.3636363624,4839.84848436,4.1212121208,4474.09090864,3696.72727236,42.0,42.0,?
2017-06-01 18:06:11.639317,4543.63636318,4.1212121208,4219.09090867,4.1212121208,3919.7878784,12.3636363624,3911.54545415,4108.84848444,4293.78787836,148.363636349,4452.45454501,478.060606013,4185.09090867,61.818181812,4355.60606017,1866.90909072,4999.54545405,2913.69696941,4112.45454504,3589.57575722,4429.78787834,0.0,4215.99999958,12.3636363624,4843.45454497,4.1212121208,4472.5454541,3696.72727236,42.0,42.0,?
2017-06-01 18:06:11.646432,4541.57575712,4.1212121208,4215.48484806,4.1212121208,3916.18181779,12.3636363624,3896.60606022,4108.84848444,4290.18181775,148.363636349,4450.90909046,478.060606013,4181.48484807,61.818181812,4353.54545411,1866.90909072,4996.96969647,2913.69696941,4106.27272686,3589.57575722,4427.21212077,0.0,4214.96969655,12.3636363624,4840.87878739,4.1212121208,4466.87878743,3696.72727236,42.0,42.0,?
2017-06-01 18:06:11.657277,4532.30302985,4.1212121208,4216.51515109,4.1212121208,3916.69696931,12.3636363624,3889.393939,4108.84848444,4291.21212078,148.363636349,4453.99999955,478.060606013,4182.5151511,61.818181812,4347.36363593,1866.90909072,5004.6969692,2913.69696941,4103.18181777,3589.57575722,4428.75757531,0.0,4211.87878746,12.3636363624,4839.33333285,4.1212121208,4461.21212077,3696.72727236,42.0,42.0,?
2017-06-01 18:06:11.663268,4540.03030258,4.1212121208,4220.1212117,4.1212121208,3919.27272688,12.3636363624,3886.30302991,4108.84848444,4295.3333329,148.363636349,4458.63636319,478.060606013,4188.18181776,61.818181812,4351.99999956,1866.90909072,5012.42424192,2913.69696941,4110.39393898,3589.57575722,4427.72727228,0.0,4209.8181814,12.3636363624,4840.36363588,4.1212121208,4465.8484844,3696.72727236,42.0,42.0,?
2017-06-01 18:06:11.671019,4534.36363591,4.1212121208,4213.93939352,4.1212121208,3913.60606021,12.3636363624,3891.96969658,4108.84848444,4307.18181775,148.363636349,4456.57575713,478.060606013,4192.30302988,61.818181812,4364.87878744,1866.90909072,5016.03030253,2913.69696941,4121.2121208,3589.57575722,4430.30302986,0.0,4211.87878746,12.3636363624,4843.45454497,4.1212121208,4477.69696925,3696.72727236,42.0,42.0,?
2017-06-01 18:06:11.679306,4542.09090864,4.1212121208,4217.54545412,4.1212121208,3915.66666628,12.3636363624,3900.21212082,4108.84848444,4302.0303026,148.363636349,4449.87878743,478.060606013,4185.09090867,61.818181812,4360.24242381,1866.90909072,5002.12121162,2913.69696941,4110.39393898,3589.57575722,4428.75757531,0.0,4211.36363594,12.3636363624,4843.45454497,4.1212121208,4474.09090864,3696.72727236,42.0,42.0,?
2017-06-01 18:06:11.687013,4543.12121167,4.1212121208,4220.1212117,4.1212121208,3915.66666628,12.3636363624,3905.87878749,4108.84848444,4288.63636321,148.363636349,4452.96969652,478.060606013,4178.90909049,61.818181812,4348.90909047,1866.90909072,4987.6969692,2913.69696941,4091.33333292,3589.57575722,4427.72727228,0.0,4210.84848443,12.3636363624,4838.30302982,4.1212121208,4461.21212077,3696.72727236,42.0,42.0,?
2017-06-01 18:06:11.693404,4536.93939349,4.1212121208,4219.60606018,4.1212121208,3915.66666628,12.3636363624,3899.18181779,4108.84848444,4288.63636321,148.363636349,4460.69696925,478.060606013,4179.93939352,61.818181812,4347.36363593,1866.90909072,4989.24242374,2913.69696941,4096.99999959,3589.57575722,4431.84848441,0.0,4211.87878746,12.3636363624,4839.84848436,4.1212121208,4458.63636319,3696.72727236,42.0,42.0,?
2017-06-01 18:06:11.701421,4542.60606015,4.1212121208,4219.60606018,4.1212121208,3919.7878784,12.3636363624,3885.7878784,4108.84848444,4291.7272723,148.363636349,4457.09090865,478.060606013,4177.36363595,61.818181812,4345.30302987,1866.90909072,4987.18181768,2913.69696941,4111.93939353,3589.57575722,4428.2424238,0.0,4210.33333291,12.3636363624,4841.39393891,4.1212121208,4460.69696925,3696.72727236,42.0,42.0,?
2017-06-01 18:06:11.709406,4531.78787833,4.1212121208,4214.45454503,4.1212121208,3914.63636324,12.3636363624,3895.57575719,4108.84848444,4291.7272723,148.363636349,4449.87878743,478.060606013,4173.75757534,61.818181812,4345.30302987,1866.90909072,4978.42424193,2913.69696941,4110.9090905,3589.57575722,4429.27272683,0.0,4210.84848443,12.3636363624,4840.36363588,4.1212121208,4460.18181774,3696.72727236,42.0,42.0,?
2017-06-01 18:06:11.717470,4540.54545409,4.1212121208,4219.09090867,4.1212121208,3915.66666628,12.3636363624,3906.393939,4108.84848444,4288.63636321,148.363636349,4453.48484804,478.060606013,4174.27272686,61.818181812,4347.87878744,1866.90909072,4976.36363587,2913.69696941,4092.87878747,3589.57575722,4433.39393895,0.0,4211.36363594,12.3636363624,4840.87878739,4.1212121208,4450.39393895,3696.72727236,42.0,42.0,?
2017-06-01 18:06:11.725451,4545.18181773,4.1212121208,4218.57575715,4.1212121208,3918.75757537,12.3636363624,3890.42424204,4108.84848444,4293.78787836,148.363636349,4456.06060561,478.060606013,4180.96969655,61.818181812,4355.09090866,1866.90909072,4991.3030298,2913.69696941,4088.75757535,3589.57575722,4430.81818138,0.0,4210.84848443,12.3636363624,4840.36363588,4.1212121208,4449.36363592,3696.72727236,42.0,42.0,?
2017-06-01 18:06:11.735225,4535.90909046,4.1212121208,4215.99999958,4.1212121208,3916.18181779,12.3636363624,3874.96969658,4108.84848444,4295.3333329,148.363636349,4446.27272683,478.060606013,4184.57575716,61.818181812,4361.78787835,1866.90909072,4997.9999995,2913.69696941,4094.42424201,3589.57575722,4430.81818138,0.0,4212.39393897,12.3636363624,4841.90909042,4.1212121208,4456.57575713,3696.72727236,42.0,42.0,?
2017-06-01 18:06:11.740501,4544.66666621,4.1212121208,4221.15151473,4.1212121208,3916.69696931,12.3636363624,3883.21212082,4108.84848444,4283.99999957,148.363636349,4438.03030259,478.060606013,4176.84848443,61.818181812,4353.03030259,1866.90909072,4979.45454496,2913.69696941,4088.24242383,3589.57575722,4428.75757531,0.0,4211.87878746,12.3636363624,4842.93939346,4.1212121208,4448.8484844,3696.72727236,42.0,42.0,?
2017-06-01 18:06:11.748430,4538.48484803,4.1212121208,4215.99999958,4.1212121208,3914.63636324,12.3636363624,3903.30302991,4108.84848444,4284.51515109,148.363636349,4439.57575713,478.060606013,4170.66666625,61.818181812,4343.75757532,1866.90909072,4976.87878738,2913.69696941,4089.27272686,3589.57575722,4427.72727228,0.0,4210.84848443,12.3636363624,4842.42424194,4.1212121208,4442.15151471,3696.72727236,42.0,42.0,?
2017-06-01 18:06:11.758095,4541.57575712,4.1212121208,4217.54545412,4.1212121208,3917.72727234,12.3636363624,3910.51515112,4108.84848444,4290.69696927,148.363636349,4446.78787834,478.060606013,4171.18181776,61.818181812,4343.24242381,1866.90909072,4991.3030298,2913.69696941,4095.45454505,3589.57575722,4428.2424238,0.0,4212.39393897,12.3636363624,4842.93939346,4.1212121208,4445.2424238,3696.72727236,42.0,42.0,?
2017-06-01 18:06:11.763571,4541.57575712,4.1212121208,4218.57575715,4.1212121208,3917.21212082,12.3636363624,3904.33333294,4108.84848444,4292.24242381,148.363636349,4451.93939349,478.060606013,4178.39393898,61.818181812,4353.54545411,1866.90909072,4993.36363586,2913.69696941,4096.99999959,3589.57575722,4428.2424238,0.0,4210.84848443,12.3636363624,4840.36363588,4.1212121208,4451.93939349,3696.72727236,42.0,42.0,?
2017-06-01 18:06:11.773672,4529.72727227,4.1212121208,4214.96969655,4.1212121208,3913.60606021,12.3636363624,3879.0909087,4108.84848444,4288.63636321,148.363636349,4453.99999955,478.060606013,4185.60606019,61.818181812,4356.6363632,1866.90909072,4987.6969692,2913.69696941,4097.51515111,3589.57575722,4429.27272683,0.0,4209.30302988,12.3636363624,4839.84848436,4.1212121208,4455.03030258,3696.72727236,42.0,42.0,?
2017-06-01 18:06:11.780098,4543.63636318,4.1212121208,4221.66666624,4.1212121208,3918.75757537,12.3636363624,3862.60606022,4108.84848444,4273.69696927,148.363636349,4450.39393895,478.060606013,4177.87878746,61.818181812,4336.54545411,1866.90909072,4978.93939344,2913.69696941,4091.84848444,3589.57575722,4428.2424238,0.0,4212.39393897,12.3636363624,4842.42424194,4.1212121208,4450.90909046,3696.72727236,42.0,42.0,?
2017-06-01 18:06:11.788157,4541.06060561,12.3636363624,4220.63636321,4.1212121208,3916.69696931,12.3636363624,3895.06060567,4108.84848444,4269.57575715,148.363636349,4440.09090865,478.060606013,4171.18181776,61.818181812,4337.06060563,1866.90909072,4980.9999995,2913.69696941,4092.87878747,3589.57575722,4429.78787834,0.0,4214.96969655,12.3636363624,4842.42424194,4.1212121208,4452.96969652,3696.72727236,42.0,42.0,?
2017-06-01 18:06:11.798675,4543.12121167,12.3636363624,4218.57575715,12.3636363624,3917.72727234,12.3636363624,3919.7878784,4108.84848444,4290.18181775,148.363636349,4444.21212077,478.060606013,4181.99999958,61.818181812,4361.78787835,1866.90909072,4992.33333283,2913.69696941,4098.54545414,3589.57575722,4429.27272683,0.0,4212.39393897,12.3636363624,4843.45454497,4.1212121208,4459.15151471,3696.72727236,42.0,42.0,?
2017-06-01 18:06:11.803830,4548.78787833,12.3636363624,4216.51515109,12.3636363624,3918.24242385,12.3636363624,3907.42424203,4108.84848444,4309.24242381,148.363636349,4453.99999955,478.060606013,4188.18181776,61.818181812,4365.90909047,1866.90909072,5001.09090859,2913.69696941,4104.2121208,3589.57575722,4427.21212077,0.0,4210.33333291,12.3636363624,4840.36363588,4.1212121208,4459.66666622,3700.84848448,42.0,42.0,?
2017-06-01 18:06:11.812778,4533.8484844,12.3636363624,4213.424242,12.3636363624,3913.0909087,4.1212121208,3894.54545416,4108.84848444,4300.99999957,148.363636349,4447.30302986,478.060606013,4183.03030261,61.818181812,4357.66666623,1866.90909072,5003.15151465,2913.69696941,4113.99999959,3589.57575722,4429.78787834,0.0,4211.36363594,12.3636363624,4837.7878783,4.1212121208,4461.72727228,3700.84848448,42.0,42.0,?
2017-06-01 18:06:11.819332,4541.57575712,12.3636363624,4221.66666624,12.3636363624,3917.21212082,4.1212121208,3874.45454507,4117.09090868,4283.99999957,148.363636349,4442.15151471,478.060606013,4181.99999958,61.818181812,4359.21212078,1866.90909072,4995.93939344,2913.69696941,4112.96969656,3589.57575722,4428.2424238,0.0,4211.36363594,12.3636363624,4839.84848436,4.1212121208,4463.27272683,3700.84848448,42.0,42.0,?
2017-06-01 18:06:11.827979,4543.63636318,12.3636363624,4219.09090867,12.3636363624,3917.72727234,4.1212121208,3874.96969658,4117.09090868,4286.06060563,152.48484847,4449.36363592,478.060606013,4184.57575716,61.818181812,4364.87878744,1866.90909072,4995.93939344,2913.69696941,4104.2121208,3589.57575722,4426.69696925,0.0,4212.39393897,12.3636363624,4840.36363588,4.1212121208,4463.27272683,3700.84848448,42.0,42.0,?
2017-06-01 18:06:11.834966,4541.57575712,12.3636363624,4216.51515109,12.3636363624,3917.21212082,4.1212121208,3914.12121173,4117.09090868,4292.75757533,152.48484847,4452.45454501,490.424242375,4179.93939352,61.818181812,4361.27272684,1866.90909072,5001.09090859,2913.69696941,4098.03030262,3589.57575722,4428.75757531,0.0,4212.39393897,12.3636363624,4842.42424194,4.1212121208,4462.75757531,3700.84848448,42.0,42.0,?
2017-06-01 18:06:11.842767,4544.66666621,12.3636363624,4219.60606018,12.3636363624,3919.27272688,4.1212121208,3926.48484809,4117.09090868,4299.96969654,152.48484847,4451.93939349,490.424242375,4177.36363595,57.6969696912,4357.66666623,1866.90909072,5004.18181768,2913.69696941,4108.84848444,3589.57575722,4426.18181774,0.0,4210.84848443,12.3636363624,4842.93939346,4.1212121208,4467.90909046,3700.84848448,42.0,42.0,?
2017-06-01 18:06:11.850706,4534.36363591,12.3636363624,4217.03030261,12.3636363624,3916.18181779,4.1212121208,3903.30302991,4117.09090868,4303.57575715,152.48484847,4455.5454541,490.424242375,4179.93939352,57.6969696912,4359.21212078,1866.90909072,5001.60606011,2913.69696941,4124.81818141,3589.57575722,4427.72727228,0.0,4212.90909049,12.3636363624,4841.39393891,4.1212121208,4474.09090864,3700.84848448,42.0,42.0,?
2017-06-01 18:06:11.857488,4545.69696924,12.3636363624,4219.60606018,12.3636363624,3919.7878784,4.1212121208,3890.93939355,4117.09090868,4286.06060563,152.48484847,4450.90909046,490.424242375,4178.39393898,57.6969696912,4347.87878744,1866.90909072,4983.06060556,2884.84848456,4113.48484807,3589.57575722,4429.27272683,0.0,4211.36363594,12.3636363624,4839.84848436,4.1212121208,4467.90909046,3700.84848448,42.0,42.0,?
2017-06-01 18:06:11.866148,4544.1515147,12.3636363624,4218.06060564,12.3636363624,3917.21212082,4.1212121208,3890.93939355,4117.09090868,4278.33333291,152.48484847,4442.15151471,490.424242375,4176.33333292,57.6969696912,4346.3333329,1866.90909072,4985.63636314,2884.84848456,4104.2121208,3589.57575722,4429.78787834,0.0,4210.33333291,12.3636363624,4840.36363588,4.1212121208,4460.18181774,3700.84848448,42.0,42.0,?
2017-06-01 18:06:11.874545,4535.90909046,12.3636363624,4217.54545412,12.3636363624,3914.63636324,4.1212121208,3886.30302991,4117.09090868,4289.66666624,152.48484847,4444.72727228,490.424242375,4179.93939352,57.6969696912,4360.24242381,1866.90909072,5010.87878738,2884.84848456,4113.99999959,3589.57575722,4431.33333289,0.0,4213.424242,12.3636363624,4844.484848,4.1212121208,4462.2424238,3700.84848448,42.0,42.0,?
2017-06-01 18:06:11.883928,4543.63636318,12.3636363624,4222.18181776,12.3636363624,3919.27272688,4.1212121208,3896.60606022,4117.09090868,4293.78787836,152.48484847,4448.33333289,490.424242375,4184.06060564,57.6969696912,4361.27272684,1866.90909072,5009.33333283,2884.84848456,4119.66666625,3589.57575722,4427.21212077,0.0,4212.90909049,12.3636363624,4841.90909042,4.1212121208,4466.87878743,3700.84848448,42.0,42.0,?
2017-06-01 18:06:11.889474,4535.39393894,12.3636363624,4219.60606018,12.3636363624,3915.66666628,4.1212121208,3913.60606021,4117.09090868,4296.36363593,152.48484847,4448.33333289,490.424242375,4185.60606019,57.6969696912,4354.57575714,1866.90909072,4984.09090859,2884.84848456,4122.75757535,3589.57575722,4428.2424238,0.0,4210.84848443,12.3636363624,4836.75757527,12.3636363624,4466.87878743,3700.84848448,42.0,42.0,?
2017-06-01 18:06:11.897168,4543.12121167,12.3636363624,4220.1212117,12.3636363624,3917.72727234,4.1212121208,3890.93939355,4117.09090868,4299.96969654,152.48484847,4449.87878743,490.424242375,4181.99999958,57.6969696912,4358.69696926,1866.90909072,4979.45454496,2884.84848456,4121.2121208,3585.4545451,4430.81818138,0.0,4211.87878746,12.3636363624,4841.39393891,12.3636363624,4463.27272683,3700.84848448,42.0,42.0,?
2017-06-01 18:06:11.905126,4543.63636318,12.3636363624,4215.48484806,12.3636363624,3920.30302991,4.1212121208,3873.42424204,4117.09090868,4299.96969654,152.48484847,4446.27272683,490.424242375,4179.42424201,57.6969696912,4367.96969653,1866.90909072,5012.93939344,2884.84848456,4122.75757535,3585.4545451,4429.27272683,12.3636363624,4212.39393897,12.3636363624,4841.90909042,12.3636363624,4471.51515107,3700.84848448,42.0,42.0,?
2017-06-01 18:06:11.914718,4534.36363591,12.3636363624,4215.48484806,12.3636363624,3918.24242385,4.1212121208,3895.06060567,4117.09090868,4289.15151472,152.48484847,4440.60606016,490.424242375,4179.42424201,57.6969696912,4361.27272684,1866.90909072,5022.72727222,2884.84848456,4126.36363595,3585.4545451,4428.75757531,12.3636363624,4210.84848443,0.0,4838.30302982,12.3636363624,4483.87878743,3700.84848448,42.0,42.0,?
2017-06-01 18:06:11.921177,4542.09090864,12.3636363624,4219.09090867,12.3636363624,3913.60606021,4.1212121208,3902.7878784,4117.09090868,4271.12121169,152.48484847,4440.09090865,490.424242375,4174.27272686,57.6969696912,4346.3333329,1866.90909072,4995.93939344,2884.84848456,4128.93939353,3585.4545451,4425.66666622,12.3636363624,4211.87878746,0.0,4837.7878783,12.3636363624,4492.12121167,3700.84848448,42.0,42.0,?
2017-06-01 18:06:11.930091,4533.33333288,12.3636363624,4213.424242,12.3636363624,3910.51515112,4.1212121208,3883.72727234,4117.09090868,4266.48484806,152.48484847,4439.57575713,490.424242375,4172.21212079,57.6969696912,4349.42424199,1866.90909072,4990.78787829,2884.84848456,4140.27272686,3585.4545451,4427.21212077,12.3636363624,4214.45454503,0.0,4836.24242376,12.3636363624,4504.99999955,3700.84848448,42.0,42.0,?
2017-06-01 18:06:11.935480,4538.48484803,12.3636363624,4218.57575715,12.3636363624,3918.24242385,4.1212121208,3873.42424204,4117.09090868,4277.30302988,152.48484847,4444.21212077,490.424242375,4177.87878746,57.6969696912,4351.99999956,1866.90909072,4997.9999995,2884.84848456,4152.12121171,3585.4545451,4428.2424238,12.3636363624,4212.39393897,0.0,4837.27272679,12.3636363624,4521.48484803,3700.84848448,42.0,42.0,?
2017-06-01 18:06:11.943448,4538.48484803,12.3636363624,4220.63636321,12.3636363624,3916.69696931,4.1212121208,3890.93939355,4117.09090868,4287.60606018,152.48484847,4446.78787834,490.424242375,4177.87878746,57.6969696912,4343.24242381,1866.90909072,4998.51515102,2884.84848456,4168.09090867,3585.4545451,4426.69696925,12.3636363624,4208.78787837,0.0,4838.81818133,12.3636363624,4543.12121167,3700.84848448,42.0,42.0,?
2017-06-01 18:06:11.953955,4531.27272682,12.3636363624,4217.03030261,12.3636363624,3911.03030264,4.1212121208,3901.24242385,4117.09090868,4279.36363594,152.48484847,4441.63636319,490.424242375,4171.69696928,57.6969696912,4340.66666623,1866.90909072,4995.93939344,2884.84848456,4184.57575716,3585.4545451,4430.81818138,12.3636363624,4210.84848443,0.0,4839.84848436,12.3636363624,4561.66666621,3700.84848448,42.0,42.0,?
2017-06-01 18:06:11.960038,4547.7575753,12.3636363624,4221.66666624,12.3636363624,3916.69696931,4.1212121208,3889.90909052,4117.09090868,4265.96969654,152.48484847,4441.63636319,490.424242375,4169.1212117,57.6969696912,4342.21212078,1866.90909072,4977.90909041,2884.84848456,4181.99999958,3585.4545451,4429.78787834,12.3636363624,4212.39393897,0.0,4839.33333285,12.3636363624,4566.81818136,3700.84848448,42.0,42.0,?
2017-06-01 18:06:11.969447,4540.54545409,12.3636363624,4215.99999958,12.3636363624,3916.69696931,4.1212121208,3886.30302991,4117.09090868,4272.15151472,152.48484847,4445.2424238,490.424242375,4171.69696928,57.6969696912,4340.15151472,1866.90909072,4971.21212072,2884.84848456,4180.96969655,3585.4545451,4427.72727228,12.3636363624,4212.39393897,0.0,4837.27272679,12.3636363624,4567.84848439,3700.84848448,42.0,42.0,?
2017-06-01 18:06:11.977253,4540.03030258,12.3636363624,4217.54545412,12.3636363624,3918.75757537,4.1212121208,3892.4848481,4117.09090868,4280.39393897,152.48484847,4444.21212077,490.424242375,4175.30302989,57.6969696912,4332.93939351,1866.90909072,4984.09090859,2884.84848456,4188.69696928,3585.4545451,4430.30302986,12.3636363624,4213.424242,0.0,4839.84848436,12.3636363624,4566.81818136,3700.84848448,42.0,42.0,?
2017-06-01 18:06:11.983656,4546.72727227,12.3636363624,4220.63636321,12.3636363624,3919.27272688,4.1212121208,3892.4848481,4117.09090868,4282.96969654,152.48484847,4445.75757531,490.424242375,4175.8181814,57.6969696912,4334.99999957,1866.90909072,4988.21212071,2884.84848456,4181.99999958,3585.4545451,4428.2424238,12.3636363624,4211.36363594,0.0,4839.33333285,12.3636363624,4566.81818136,3700.84848448,42.0,42.0,?
2017-06-01 18:06:11.990993,4534.87878743,12.3636363624,4216.51515109,12.3636363624,3913.60606021,4.1212121208,3888.36363597,4117.09090868,4283.99999957,152.48484847,4448.33333289,490.424242375,4177.36363595,57.6969696912,4345.30302987,1866.90909072,4988.72727223,2884.84848456,4176.84848443,3585.4545451,4428.2424238,12.3636363624,4210.84848443,0.0,4839.84848436,12.3636363624,4566.81818136,3700.84848448,42.0,42.0,?
2017-06-01 18:06:11.999801,4541.57575712,12.3636363624,4220.63636321,12.3636363624,3916.18181779,4.1212121208,3883.72727234,4117.09090868,4280.90909048,152.48484847,4444.21212077,490.424242375,4174.78787837,57.6969696912,4343.75757532,1866.90909072,4987.6969692,2884.84848456,4177.87878746,3585.4545451,4427.21212077,12.3636363624,4210.84848443,0.0,4841.39393891,12.3636363624,4555.48484803,3700.84848448,42.0,42.0,?
2017-06-01 18:06:12.006415,4540.03030258,12.3636363624,4217.03030261,12.3636363624,3917.72727234,4.1212121208,3885.27272688,4117.09090868,4277.81818139,152.48484847,4438.03030259,490.424242375,4172.72727231,57.6969696912,4336.54545411,1866.90909072,4985.12121162,2884.84848456,4167.06060564,3585.4545451,4428.2424238,12.3636363624,4212.39393897,0.0,4841.39393891,12.3636363624,4543.63636318,3700.84848448,42.0,42.0,?
2017-06-01 18:06:12.017407,4540.03030258,12.3636363624,4216.51515109,12.3636363624,3919.27272688,4.1212121208,3899.18181779,4117.09090868,4274.7272723,152.48484847,4440.60606016,490.424242375,4172.72727231,57.6969696912,4332.93939351,1866.90909072,4983.06060556,2884.84848456,4150.06060565,3585.4545451,4429.78787834,12.3636363624,4211.87878746,0.0,4840.87878739,12.3636363624,4532.30302985,3700.84848448,42.0,42.0,?
2017-06-01 18:06:12.021534,4544.1515147,12.3636363624,4218.06060564,12.3636363624,3918.75757537,4.1212121208,3898.15151476,4117.09090868,4277.30302988,152.48484847,4448.8484844,490.424242375,4175.8181814,57.6969696912,4341.18181775,1866.90909072,4982.54545405,2884.84848456,4142.84848443,3585.4545451,4425.66666622,12.3636363624,4209.8181814,0.0,4838.30302982,12.3636363624,4518.39393894,3700.84848448,42.0,42.0,?
2017-06-01 18:06:12.030626,4535.39393894,12.3636363624,4214.96969655,12.3636363624,3914.12121173,4.1212121208,3873.93939355,4117.09090868,4282.45454503,152.48484847,4452.96969652,490.424242375,4179.93939352,57.6969696912,4347.36363593,1866.90909072,4985.63636314,2884.84848456,4137.69696928,3585.4545451,4427.72727228,12.3636363624,4211.36363594,0.0,4841.90909042,12.3636363624,4516.33333288,3700.84848448,42.0,42.0,?
2017-06-01 18:06:12.037469,4546.21212076,12.3636363624,4218.57575715,12.3636363624,3918.24242385,4.1212121208,3872.39393901,4117.09090868,4280.39393897,152.48484847,4449.36363592,490.424242375,4178.39393898,57.6969696912,4336.54545411,1866.90909072,4989.24242374,2884.84848456,4128.93939353,3585.4545451,4429.27272683,12.3636363624,4210.84848443,0.0,4843.96969649,12.3636363624,4513.24242379,3700.84848448,42.0,42.0,?
2017-06-01 18:06:12.047034,4543.12121167,12.3636363624,4215.48484806,12.3636363624,3916.18181779,4.1212121208,3905.87878749,4117.09090868,4281.93939351,152.48484847,4444.21212077,490.424242375,4179.93939352,57.6969696912,4343.75757532,1866.90909072,5004.18181768,2884.84848456,4135.12121171,3585.4545451,4429.27272683,12.3636363624,4210.33333291,0.0,4838.81818133,12.3636363624,4504.99999955,3700.84848448,42.0,42.0,?
2017-06-01 18:06:12.054198,4539.51515106,12.3636363624,4217.54545412,12.3636363624,3914.63636324,4.1212121208,3911.03030264,4117.09090868,4285.54545412,152.48484847,4448.8484844,490.424242375,4187.15151473,57.6969696912,4360.24242381,1866.90909072,5006.75757526,2884.84848456,4136.66666625,3585.4545451,4430.81818138,12.3636363624,4211.36363594,0.0,4840.36363588,12.3636363624,4499.8484844,3700.84848448,42.0,42.0,?
2017-06-01 18:06:12.061802,4546.21212076,12.3636363624,4221.15151473,12.3636363624,3918.24242385,4.1212121208,3884.75757537,4117.09090868,4285.0303026,152.48484847,4458.12121168,490.424242375,4187.66666625,57.6969696912,4358.18181775,1866.90909072,4990.27272677,2884.84848456,4126.87878747,3585.4545451,4427.72727228,12.3636363624,4210.33333291,0.0,4841.39393891,12.3636363624,4497.78787834,3700.84848448,42.0,42.0,?
2017-06-01 18:06:12.071560,4534.87878743,12.3636363624,4213.93939352,12.3636363624,3914.63636324,4.1212121208,3890.93939355,4117.09090868,4291.21212078,152.48484847,4455.03030258,490.424242375,4184.57575716,57.6969696912,4358.18181775,1866.90909072,4991.81818132,2884.84848456,4125.84848444,3585.4545451,4428.75757531,12.3636363624,4210.84848443,0.0,4841.90909042,12.3636363624,4497.78787834,3700.84848448,42.0,42.0,?
2017-06-01 18:06:12.076992,4544.1515147,12.3636363624,4218.57575715,12.3636363624,3917.21212082,4.1212121208,3895.06060567,4117.09090868,4288.12121169,152.48484847,4447.81818137,490.424242375,4184.06060564,57.6969696912,4356.12121169,1866.90909072,5002.63636314,2884.84848456,4117.60606019,3585.4545451,4428.75757531,12.3636363624,4211.36363594,0.0,4842.42424194,12.3636363624,4492.63636319,3700.84848448,42.0,42.0,?
2017-06-01 18:06:12.084397,4545.18181773,12.3636363624,4220.63636321,12.3636363624,3918.75757537,4.1212121208,3872.90909052,4117.09090868,4274.7272723,152.48484847,4445.2424238,490.424242375,4183.54545413,57.6969696912,4348.39393896,1866.90909072,4989.75757526,2884.84848456,4105.24242383,3585.4545451,4429.27272683,12.3636363624,4210.84848443,0.0,4837.27272679,12.3636363624,4485.93939349,3700.84848448,42.0,42.0,?
2017-06-01 18:06:12.093630,4538.99999955,12.3636363624,4217.03030261,12.3636363624,3917.21212082,4.1212121208,3877.54545416,4117.09090868,4280.39393897,152.48484847,4448.33333289,490.424242375,4178.90909049,57.6969696912,4348.90909047,1866.90909072,4972.24242375,2884.84848456,4094.42424201,3585.4545451,4432.36363592,12.3636363624,4211.87878746,0.0,4837.7878783,12.3636363624,4476.66666622,3700.84848448,42.0,42.0,?
2017-06-01 18:06:12.103658,4544.66666621,12.3636363624,4215.99999958,12.3636363624,3915.66666628,4.1212121208,3903.81818143,4117.09090868,4295.3333329,152.48484847,4452.45454501,490.424242375,4177.36363595,57.6969696912,4348.90909047,1866.90909072,4982.54545405,2884.84848456,4084.12121171,3585.4545451,4428.2424238,12.3636363624,4212.39393897,0.0,4840.36363588,12.3636363624,4470.99999955,3700.84848448,42.0,42.0,?
2017-06-01 18:06:12.109321,4534.36363591,12.3636363624,4213.424242,12.3636363624,3913.0909087,4.1212121208,3909.99999961,4117.09090868,4293.27272684,152.48484847,4449.36363592,490.424242375,4179.42424201,57.6969696912,4350.45454502,1866.90909072,4997.9999995,2884.84848456,4085.66666626,3585.4545451,4428.75757531,12.3636363624,4211.36363594,0.0,4840.87878739,12.3636363624,4477.18181773,3700.84848448,42.0,42.0,?
2017-06-01 18:06:12.119420,4544.66666621,12.3636363624,4218.06060564,12.3636363624,3919.7878784,4.1212121208,3900.72727234,4117.09090868,4287.09090866,152.48484847,4445.75757531,490.424242375,4178.39393898,57.6969696912,4352.51515108,1866.90909072,4989.75757526,2884.84848456,4079.99999959,3585.4545451,4429.78787834,12.3636363624,4210.84848443,0.0,4840.87878739,12.3636363624,4474.60606016,3700.84848448,42.0,42.0,?
2017-06-01 18:06:12.124249,4546.21212076,12.3636363624,4216.51515109,12.3636363624,3918.75757537,4.1212121208,3891.45454507,4117.09090868,4293.78787836,152.48484847,4448.8484844,490.424242375,4178.90909049,57.6969696912,4348.90909047,1866.90909072,4987.6969692,2884.84848456,4061.96969656,3585.4545451,4427.21212077,12.3636363624,4211.87878746,0.0,4840.36363588,12.3636363624,4461.21212077,3700.84848448,42.0,42.0,?
2017-06-01 18:06:12.131417,4532.30302985,12.3636363624,4214.96969655,12.3636363624,3914.63636324,4.1212121208,3870.33333295,4117.09090868,4285.54545412,152.48484847,4450.39393895,490.424242375,4180.96969655,57.6969696912,4342.21212078,1866.90909072,4990.27272677,2884.84848456,4052.69696929,3585.4545451,4429.78787834,12.3636363624,4210.84848443,0.0,4840.36363588,12.3636363624,4454.51515107,3700.84848448,42.0,42.0,?
2017-06-01 18:06:12.145354,4542.09090864,12.3636363624,4218.57575715,12.3636363624,3918.24242385,4.1212121208,3866.21212083,4117.09090868,4271.12121169,152.48484847,4447.30302986,490.424242375,4175.8181814,57.6969696912,4338.60606017,1866.90909072,4975.84848435,2884.84848456,4055.27272687,3585.4545451,4428.75757531,12.3636363624,4209.8181814,0.0,4838.30302982,12.3636363624,4456.06060561,3700.84848448,42.0,42.0,?
2017-06-01 18:06:12.148286,4539.51515106,12.3636363624,4217.03030261,12.3636363624,3916.18181779,4.1212121208,3887.33333294,4117.09090868,4287.09090866,152.48484847,4448.8484844,490.424242375,4175.8181814,57.6969696912,4345.81818138,1866.90909072,4974.30302981,2884.84848456,4066.09090868,3585.4545451,4428.75757531,12.3636363624,4213.424242,0.0,4838.81818133,12.3636363624,4459.66666622,3700.84848448,42.0,42.0,?
2017-06-01 18:06:12.155051,4542.09090864,12.3636363624,4220.63636321,12.3636363624,3919.27272688,4.1212121208,3887.84848446,4117.09090868,4295.3333329,152.48484847,4450.90909046,490.424242375,4178.39393898,57.6969696912,4349.42424199,1866.90909072,4986.66666617,2884.84848456,4066.09090868,3585.4545451,4429.27272683,12.3636363624,4211.87878746,0.0,4842.93939346,12.3636363624,4451.93939349,3700.84848448,42.0,42.0,?
2017-06-01 18:06:12.163818,4541.06060561,12.3636363624,4218.06060564,12.3636363624,3918.75757537,4.1212121208,3886.81818143,4117.09090868,4282.45454503,152.48484847,4443.69696925,490.424242375,4177.36363595,57.6969696912,4345.30302987,1866.90909072,4988.72727223,2884.84848456,4058.36363596,3585.4545451,4428.75757531,12.3636363624,4207.75757534,0.0,4840.36363588,12.3636363624,4442.66666622,3700.84848448,42.0,42.0,?
2017-06-01 18:06:12.171125,4531.78787833,12.3636363624,4212.39393897,12.3636363624,3915.15151476,4.1212121208,3895.06060567,4117.09090868,4283.48484806,152.48484847,4442.15151471,490.424242375,4178.90909049,57.6969696912,4347.36363593,1866.90909072,4977.90909041,2884.84848456,4061.45454505,3585.4545451,4432.87878744,12.3636363624,4210.33333291,0.0,4839.84848436,12.3636363624,4447.30302986,3700.84848448,42.0,42.0,?
2017-06-01 18:06:12.181228,4542.09090864,12.3636363624,4219.09090867,12.3636363624,3918.24242385,4.1212121208,3885.7878784,4117.09090868,4285.54545412,152.48484847,4448.33333289,490.424242375,4177.36363595,57.6969696912,4349.42424199,1866.90909072,4973.27272678,2884.84848456,4063.51515111,3585.4545451,4430.30302986,12.3636363624,4211.87878746,0.0,4841.39393891,12.3636363624,4447.30302986,3700.84848448,42.0,42.0,?
2017-06-01 18:06:12.187519,4537.454545,12.3636363624,4216.51515109,12.3636363624,3915.66666628,4.1212121208,3885.7878784,4117.09090868,4274.7272723,152.48484847,4446.78787834,490.424242375,4175.30302989,57.6969696912,4344.27272684,1866.90909072,4989.24242374,2884.84848456,4058.36363596,3585.4545451,4427.21212077,12.3636363624,4207.75757534,0.0,4839.84848436,12.3636363624,4441.12121168,3700.84848448,42.0,42.0,?
2017-06-01 18:06:12.196733,4541.06060561,12.3636363624,4217.03030261,12.3636363624,3917.21212082,4.1212121208,3892.99999961,4117.09090868,4268.0303026,152.48484847,4442.66666622,490.424242375,4176.84848443,57.6969696912,4330.87878745,1866.90909072,4985.12121162,2884.84848456,4043.42424202,3585.4545451,4429.27272683,12.3636363624,4207.24242382,0.0,4841.90909042,12.3636363624,4442.66666622,3700.84848448,42.0,42.0,?
2017-06-01 18:06:12.201782,4542.60606015,12.3636363624,4218.06060564,12.3636363624,3918.24242385,4.1212121208,3880.12121173,4117.09090868,4277.30302988,152.48484847,4443.18181774,490.424242375,4179.42424201,57.6969696912,4328.30302987,1866.90909072,4965.03030253,2884.84848456,4034.66666626,3585.4545451,4429.78787834,12.3636363624,4210.84848443,0.0,4840.36363588,12.3636363624,4447.81818137,3700.84848448,42.0,42.0,?
2017-06-01 18:06:12.210476,4528.69696924,12.3636363624,4214.45454503,12.3636363624,3914.12121173,4.1212121208,3879.60606022,4117.09090868,4287.60606018,152.48484847,4446.27272683,490.424242375,4180.45454504,57.6969696912,4345.30302987,1866.90909072,4975.33333284,2884.84848456,4052.69696929,3585.4545451,4430.81818138,12.3636363624,4212.90909049,0.0,4838.81818133,12.3636363624,4446.78787834,3700.84848448,42.0,42.0,?
2017-06-01 18:06:12.218175,4542.09090864,12.3636363624,4219.60606018,12.3636363624,3917.72727234,4.1212121208,3893.51515113,4117.09090868,4285.0303026,152.48484847,4448.8484844,490.424242375,4179.93939352,57.6969696912,4348.39393896,1866.90909072,4984.60606011,2884.84848456,4066.09090868,3585.4545451,4428.2424238,12.3636363624,4210.33333291,0.0,4839.84848436,12.3636363624,4439.06060562,3700.84848448,42.0,42.0,?
2017-06-01 18:06:12.225936,4542.09090864,12.3636363624,4217.03030261,12.3636363624,3916.69696931,4.1212121208,3884.75757537,4117.09090868,4282.96969654,152.48484847,4446.78787834,490.424242375,4181.48484807,57.6969696912,4341.18181775,1866.90909072,4969.15151465,2884.84848456,4059.39393899,3585.4545451,4429.27272683,12.3636363624,4210.33333291,0.0,4840.36363588,12.3636363624,4438.5454541,3700.84848448,42.0,42.0,?
2017-06-01 18:06:12.235677,4538.48484803,12.3636363624,4215.99999958,12.3636363624,3915.15151476,4.1212121208,3869.30302992,4117.09090868,4280.90909048,152.48484847,4443.18181774,490.424242375,4181.99999958,57.6969696912,4343.75757532,1866.90909072,4968.63636314,2884.84848456,4045.9999996,3585.4545451,4431.33333289,12.3636363624,4211.87878746,0.0,4841.90909042,12.3636363624,4440.09090865,3700.84848448,42.0,42.0,?
2017-06-01 18:06:12.242467,4543.63636318,12.3636363624,4218.57575715,12.3636363624,3916.18181779,4.1212121208,3882.18181779,4117.09090868,4280.39393897,152.48484847,4445.2424238,490.424242375,4181.48484807,57.6969696912,4350.96969653,1866.90909072,4994.90909041,2884.84848456,4043.93939353,3585.4545451,4426.69696925,12.3636363624,4210.33333291,0.0,4839.84848436,12.3636363624,4444.21212077,3700.84848448,42.0,42.0,?
2017-06-01 18:06:12.250191,4534.87878743,12.3636363624,4214.45454503,12.3636363624,3915.15151476,4.1212121208,3895.57575719,4117.09090868,4279.36363594,152.48484847,4445.2424238,490.424242375,4188.69696928,57.6969696912,4356.6363632,1866.90909072,5002.12121162,2884.84848456,4058.87878747,3585.4545451,4428.75757531,12.3636363624,4210.84848443,0.0,4839.84848436,12.3636363624,4450.90909046,3700.84848448,42.0,42.0,?
2017-06-01 18:06:12.258285,4545.69696924,12.3636363624,4219.09090867,12.3636363624,3919.27272688,4.1212121208,3881.15151476,4117.09090868,4274.21212078,152.48484847,4444.72727228,490.424242375,4191.78787837,57.6969696912,4350.96969653,1866.90909072,4972.75757526,2884.84848456,4067.63636323,3585.4545451,4429.78787834,12.3636363624,4212.90909049,0.0,4842.42424194,12.3636363624,4447.30302986,3700.84848448,42.0,42.0,?
2017-06-01 18:06:12.270196,4542.09090864,12.3636363624,4217.54545412,12.3636363624,3916.69696931,4.1212121208,3885.27272688,4117.09090868,4282.45454503,152.48484847,4445.2424238,490.424242375,4185.09090867,57.6969696912,4348.39393896,1866.90909072,4969.15151465,2884.84848456,4061.45454505,3585.4545451,4427.21212077,12.3636363624,4213.93939352,0.0,4839.84848436,12.3636363624,4445.2424238,3700.84848448,42.0,42.0,?
2017-06-01 18:06:12.275288,4535.90909046,12.3636363624,4214.96969655,12.3636363624,3916.69696931,4.1212121208,3892.99999961,4117.09090868,4293.27272684,152.48484847,4442.66666622,490.424242375,4183.54545413,57.6969696912,4356.12121169,1866.90909072,5002.12121162,2884.84848456,4061.96969656,3585.4545451,4427.21212077,12.3636363624,4212.39393897,0.0,4837.7878783,12.3636363624,4450.39393895,3700.84848448,42.0,42.0,?
2017-06-01 18:06:12.280968,4543.63636318,12.3636363624,4217.03030261,12.3636363624,3917.21212082,4.1212121208,3881.15151476,4117.09090868,4290.69696927,152.48484847,4447.30302986,490.424242375,4186.63636322,57.6969696912,4360.24242381,1866.90909072,5002.63636314,2884.84848456,4071.24242384,3585.4545451,4425.15151471,12.3636363624,4207.75757534,0.0,4839.33333285,12.3636363624,4451.93939349,3700.84848448,42.0,42.0,?
2017-06-01 18:06:12.288593,4532.81818136,12.3636363624,4214.96969655,12.3636363624,3912.06060567,4.1212121208,3890.42424204,4117.09090868,4289.15151472,152.48484847,4452.96969652,490.424242375,4186.63636322,57.6969696912,4358.18181775,1866.90909072,4985.63636314,2884.84848456,4069.18181777,3585.4545451,4427.72727228,12.3636363624,4209.30302988,0.0,4841.39393891,12.3636363624,4448.8484844,3700.84848448,42.0,42.0,?
2017-06-01 18:06:12.297301,4541.06060561,12.3636363624,4219.09090867,12.3636363624,3917.21212082,4.1212121208,3892.99999961,4117.09090868,4285.54545412,152.48484847,4448.33333289,490.424242375,4185.60606019,57.6969696912,4356.12121169,1866.90909072,4992.33333283,2884.84848456,4061.96969656,3585.4545451,4427.72727228,12.3636363624,4212.39393897,0.0,4841.90909042,12.3636363624,4445.2424238,3700.84848448,42.0,42.0,?
2017-06-01 18:06:12.304218,4541.57575712,12.3636363624,4218.57575715,8.2424242416,3916.18181779,4.1212121208,3874.45454507,4117.09090868,4286.57575715,152.48484847,4443.69696925,490.424242375,4184.57575716,57.6969696912,4353.03030259,1866.90909072,4998.51515102,2884.84848456,4073.3030299,3585.4545451,4426.69696925,12.3636363624,4212.39393897,0.0,4840.87878739,12.3636363624,4451.93939349,3700.84848448,42.0,42.0,?
2017-06-01 18:06:12.311910,4533.8484844,12.3636363624,4218.06060564,8.2424242416,3911.54545415,4.1212121208,3883.21212082,4117.09090868,4295.3333329,152.48484847,4447.81818137,490.424242375,4179.42424201,57.6969696912,4341.18181775,1866.90909072,4986.15151465,2884.84848456,4068.66666626,3585.4545451,4431.33333289,12.3636363624,4210.84848443,0.0,4842.93939346,12.3636363624,4456.57575713,3700.84848448,42.0,42.0,?
2017-06-01 18:06:12.319466,4545.18181773,12.3636363624,4221.15151473,8.2424242416,3916.69696931,8.2424242416,3902.27272688,4117.09090868,4287.60606018,152.48484847,4449.87878743,490.424242375,4178.39393898,57.6969696912,4338.60606017,1866.90909072,4976.87878738,2884.84848456,4050.63636323,3585.4545451,4429.78787834,12.3636363624,4211.36363594,0.0,4840.36363588,12.3636363624,4448.33333289,3700.84848448,42.0,42.0,?
2017-06-01 18:06:12.327178,4537.96969652,12.3636363624,4215.99999958,8.2424242416,3916.69696931,8.2424242416,3888.87878749,4108.84848444,4275.24242381,152.48484847,4447.30302986,490.424242375,4183.03030261,57.6969696912,4351.99999956,1866.90909072,4980.9999995,2884.84848456,4061.45454505,3585.4545451,4429.78787834,12.3636363624,4212.39393897,0.0,4839.84848436,12.3636363624,4445.75757531,3700.84848448,42.0,42.0,?
2017-06-01 18:06:12.335350,4543.12121167,12.3636363624,4220.1212117,8.2424242416,3917.72727234,8.2424242416,3872.90909052,4108.84848444,4277.81818139,148.363636349,4446.78787834,490.424242375,4180.96969655,57.6969696912,4349.42424199,1866.90909072,4976.36363587,2884.84848456,4062.99999959,3585.4545451,4429.78787834,12.3636363624,4211.36363594,0.0,4843.45454497,12.3636363624,4450.39393895,3700.84848448,42.0,42.0,?
2017-06-01 18:06:12.343083,4545.69696924,12.3636363624,4218.06060564,8.2424242416,3920.30302991,8.2424242416,3890.42424204,4108.84848444,4289.15151472,148.363636349,4442.15151471,490.424242375,4177.87878746,57.6969696912,4339.12121169,1866.90909072,4978.42424193,2884.84848456,4055.27272687,3585.4545451,4427.72727228,12.3636363624,4210.84848443,0.0,4839.84848436,12.3636363624,4455.03030258,3700.84848448,42.0,42.0,?
2017-06-01 18:06:12.351866,4536.93939349,12.3636363624,4213.93939352,8.2424242416,3919.27272688,8.2424242416,3902.7878784,4108.84848444,4287.60606018,148.363636349,4441.63636319,490.424242375,4178.90909049,57.6969696912,4342.21212078,1866.90909072,4990.78787829,2884.84848456,4067.12121171,3585.4545451,4430.81818138,12.3636363624,4212.90909049,0.0,4839.84848436,12.3636363624,4452.96969652,3700.84848448,42.0,42.0,?
2017-06-01 18:06:12.359249,4542.60606015,12.3636363624,4219.09090867,8.2424242416,3916.18181779,8.2424242416,3884.75757537,4108.84848444,4271.12121169,148.363636349,4446.27272683,490.424242375,4174.27272686,57.6969696912,4339.12121169,1875.15151496,4987.18181768,2884.84848456,4065.57575717,3585.4545451,4429.27272683,12.3636363624,4211.36363594,0.0,4843.45454497,12.3636363624,4445.75757531,3700.84848448,42.0,42.0,?
2017-06-01 18:06:12.367007,4534.36363591,12.3636363624,4214.96969655,8.2424242416,3909.99999961,8.2424242416,3872.90909052,4108.84848444,4269.06060563,148.363636349,4442.15151471,490.424242375,4173.75757534,57.6969696912,4332.93939351,1875.15151496,4977.90909041,2897.21212092,4061.96969656,3585.4545451,4428.2424238,12.3636363624,4207.75757534,0.0,4840.87878739,12.3636363624,4452.45454501,3700.84848448,42.0,42.0,?
2017-06-01 18:06:12.374627,4540.03030258,12.3636363624,4217.03030261,8.2424242416,3915.15151476,8.2424242416,3883.72727234,4108.84848444,4278.84848442,148.363636349,4438.5454541,490.424242375,4181.99999958,57.6969696912,4338.60606017,1875.15151496,4977.3939389,2897.21212092,4067.12121171,3626.6666663,4429.27272683,12.3636363624,4209.30302988,0.0,4840.36363588,12.3636363624,4460.69696925,3700.84848448,42.0,42.0,?
2017-06-01 18:06:12.381945,4542.09090864,12.3636363624,4219.60606018,8.2424242416,3918.24242385,8.2424242416,3896.0909087,4108.84848444,4279.36363594,148.363636349,4443.18181774,490.424242375,4184.06060564,57.6969696912,4345.81818138,1875.15151496,4975.84848435,2897.21212092,4067.63636323,3626.6666663,4427.21212077,4.1212121208,4212.90909049,0.0,4839.84848436,12.3636363624,4455.03030258,3700.84848448,42.0,42.0,?
2017-06-01 18:06:12.396489,4530.7575753,12.3636363624,4217.03030261,8.2424242416,3913.60606021,8.2424242416,3881.66666628,4108.84848444,4266.99999957,148.363636349,4444.72727228,490.424242375,4178.39393898,57.6969696912,4341.18181775,1875.15151496,4967.60606011,2897.21212092,4063.51515111,3626.6666663,4430.30302986,4.1212121208,4212.90909049,0.0,4838.81818133,12.3636363624,4448.33333289,3700.84848448,42.0,42.0,?
2017-06-01 18:06:12.398637,4544.1515147,12.3636363624,4219.60606018,8.2424242416,3918.24242385,8.2424242416,3869.30302992,4108.84848444,4262.87878745,148.363636349,4441.63636319,490.424242375,4176.84848443,57.6969696912,4336.0303026,1875.15151496,4971.21212072,2897.21212092,4058.87878747,3626.6666663,4429.27272683,4.1212121208,4211.36363594,0.0,4839.33333285,8.2424242416,4446.78787834,3700.84848448,42.0,42.0,?
2017-06-01 18:06:12.406671,4540.54545409,12.3636363624,4215.48484806,8.2424242416,3916.69696931,8.2424242416,3897.12121173,4108.84848444,4275.24242381,148.363636349,4441.63636319,490.424242375,4179.42424201,57.6969696912,4345.81818138,1875.15151496,4984.09090859,2897.21212092,4061.96969656,3634.90909055,4428.2424238,4.1212121208,4212.39393897,0.0,4839.84848436,8.2424242416,4447.81818137,3700.84848448,42.0,42.0,?
2017-06-01 18:06:12.413025,4540.54545409,12.3636363624,4218.06060564,8.2424242416,3915.66666628,8.2424242416,3909.99999961,4108.84848444,4278.33333291,148.363636349,4444.21212077,490.424242375,4178.39393898,57.6969696912,4341.69696926,1875.15151496,4980.48484799,2897.21212092,4064.54545414,3634.90909055,4428.75757531,12.3636363624,4212.39393897,0.0,4841.90909042,8.2424242416,4441.12121168,3700.84848448,42.0,42.0,?
2017-06-01 18:06:12.420388,4546.72727227,12.3636363624,4219.60606018,8.2424242416,3916.69696931,8.2424242416,3880.63636325,4108.84848444,4279.87878745,148.363636349,4444.21212077,490.424242375,4178.90909049,57.6969696912,4329.84848442,1875.15151496,4981.51515102,2897.21212092,4057.84848444,3634.90909055,4427.72727228,12.3636363624,4209.8181814,0.0,4839.33333285,8.2424242416,4438.5454541,3700.84848448,42.0,42.0,?
2017-06-01 18:06:12.430027,4534.87878743,12.3636363624,4214.96969655,8.2424242416,3914.63636324,8.2424242416,3870.84848446,4108.84848444,4286.57575715,148.363636349,4440.60606016,490.424242375,4180.45454504,57.6969696912,4339.12121169,1875.15151496,4985.63636314,2897.21212092,4052.69696929,3634.90909055,4429.27272683,12.3636363624,4209.30302988,0.0,4840.36363588,8.2424242416,4444.21212077,3700.84848448,42.0,42.0,?
2017-06-01 18:06:12.436480,4542.60606015,12.3636363624,4223.21212079,8.2424242416,3917.21212082,8.2424242416,3885.27272688,4108.84848444,4279.36363594,148.363636349,4441.12121168,490.424242375,4175.30302989,57.6969696912,4345.81818138,1875.15151496,4970.6969692,2897.21212092,4056.3030299,3634.90909055,4425.66666622,12.3636363624,4210.33333291,0.0,4843.96969649,8.2424242416,4443.18181774,3700.84848448,42.0,42.0,?
2017-06-01 18:06:12.444514,4538.48484803,12.3636363624,4220.63636321,8.2424242416,3914.63636324,8.2424242416,3888.36363597,4108.84848444,4268.54545412,148.363636349,4442.15151471,490.424242375,4176.33333292,57.6969696912,4343.75757532,1875.15151496,4975.84848435,2897.21212092,4063.51515111,3634.90909055,4425.66666622,12.3636363624,4212.39393897,0.0,4840.87878739,8.2424242416,4441.63636319,3700.84848448,42.0,42.0,?
2017-06-01 18:06:12.453222,4534.87878743,12.3636363624,4216.51515109,8.2424242416,3917.21212082,8.2424242416,3882.18181779,4108.84848444,4265.96969654,148.363636349,4441.63636319,490.424242375,4183.03030261,57.6969696912,4343.24242381,1875.15151496,4994.90909041,2897.21212092,4067.12121171,3634.90909055,4430.30302986,12.3636363624,4212.90909049,0.0,4838.81818133,8.2424242416,4445.2424238,3700.84848448,42.0,42.0,?
2017-06-01 18:06:12.460914,4541.57575712,12.3636363624,4220.1212117,8.2424242416,3920.30302991,8.2424242416,3885.27272688,4108.84848444,4275.24242381,148.363636349,4444.21212077,490.424242375,4177.36363595,57.6969696912,4341.18181775,1875.15151496,4991.3030298,2897.21212092,4070.21212081,3634.90909055,4427.72727228,12.3636363624,4210.33333291,0.0,4839.33333285,8.2424242416,4449.87878743,3700.84848448,42.0,42.0,?
2017-06-01 18:06:12.467456,4530.7575753,12.3636363624,4217.03030261,8.2424242416,3914.63636324,8.2424242416,3890.93939355,4108.84848444,4281.93939351,148.363636349,4444.21212077,490.424242375,4173.24242383,57.6969696912,4337.57575714,1875.15151496,4991.3030298,2897.21212092,4064.03030262,3634.90909055,4428.2424238,12.3636363624,4208.78787837,0.0,4841.90909042,8.2424242416,4452.96969652,3700.84848448,42.0,42.0,?
2017-06-01 18:06:12.477601,4541.57575712,12.3636363624,4218.57575715,8.2424242416,3917.72727234,8.2424242416,3875.4848481,4108.84848444,4264.93939351,148.363636349,4439.06060562,490.424242375,4176.33333292,57.6969696912,4329.3333329,1875.15151496,4986.15151465,2897.21212092,4051.66666626,3634.90909055,4428.75757531,12.3636363624,4208.78787837,0.0,4841.90909042,8.2424242416,4446.27272683,3700.84848448,42.0,42.0,?
2017-06-01 18:06:12.483486,4544.66666621,12.3636363624,4218.57575715,8.2424242416,3919.27272688,8.2424242416,3863.63636325,4108.84848444,4256.69696927,148.363636349,4433.90909047,490.424242375,4173.24242383,57.6969696912,4330.87878745,1875.15151496,4968.63636314,2897.21212092,4066.6060602,3634.90909055,4427.72727228,12.3636363624,4211.36363594,0.0,4838.81818133,8.2424242416,4440.09090865,3700.84848448,42.0,42.0,?
2017-06-01 18:06:12.492130,4538.48484803,12.3636363624,4219.09090867,8.2424242416,3915.66666628,8.2424242416,3878.06060567,4108.84848444,4273.69696927,148.363636349,4436.99999956,490.424242375,4171.18181776,57.6969696912,4344.78787835,1875.15151496,4975.33333284,2897.21212092,4077.93939353,3634.90909055,4429.27272683,12.3636363624,4212.39393897,0.0,4840.87878739,8.2424242416,4443.69696925,3700.84848448,42.0,42.0,?
2017-06-01 18:06:12.498536,4544.1515147,12.3636363624,4218.57575715,8.2424242416,3916.18181779,8.2424242416,3905.87878749,4108.84848444,4281.424242,148.363636349,4441.63636319,490.424242375,4178.39393898,57.6969696912,4349.42424199,1875.15151496,4995.42424192,2897.21212092,4067.63636323,3634.90909055,4428.2424238,12.3636363624,4209.8181814,0.0,4841.39393891,8.2424242416,4451.42424198,3700.84848448,42.0,42.0,?
2017-06-01 18:06:12.508466,4534.87878743,12.3636363624,4213.424242,8.2424242416,3915.66666628,8.2424242416,3916.69696931,4108.84848444,4277.81818139,148.363636349,4438.5454541,490.424242375,4182.5151511,57.6969696912,4344.27272684,1875.15151496,4995.93939344,2897.21212092,4075.36363596,3634.90909055,4429.78787834,12.3636363624,4211.87878746,0.0,4840.36363588,8.2424242416,4459.66666622,3700.84848448,42.0,42.0,?
2017-06-01 18:06:12.516299,4543.12121167,12.3636363624,4220.63636321,8.2424242416,3917.72727234,8.2424242416,3878.06060567,4108.84848444,4274.7272723,148.363636349,4436.48484804,490.424242375,4178.90909049,57.6969696912,4340.66666623,1875.15151496,4971.72727223,2897.21212092,4083.09090868,3634.90909055,4427.21212077,12.3636363624,4212.90909049,0.0,4840.87878739,8.2424242416,4457.60606016,3700.84848448,42.0,42.0,?
2017-06-01 18:06:12.522457,4543.12121167,12.3636363624,4220.63636321,8.2424242416,3914.12121173,8.2424242416,3857.96969658,4108.84848444,4275.75757533,148.363636349,4439.06060562,490.424242375,4177.36363595,57.6969696912,4341.18181775,1875.15151496,4966.06060556,2897.21212092,4072.78787838,3634.90909055,4426.18181774,12.3636363624,4208.27272685,0.0,4839.84848436,8.2424242416,4451.42424198,3700.84848448,42.0,42.0,?
2017-06-01 18:06:12.531571,4534.87878743,12.3636363624,4214.96969655,8.2424242416,3914.63636324,8.2424242416,3895.06060567,4108.84848444,4279.36363594,148.363636349,4442.15151471,490.424242375,4178.39393898,57.6969696912,4331.39393896,1875.15151496,4984.09090859,2897.21212092,4071.24242384,3634.90909055,4431.33333289,12.3636363624,4208.78787837,0.0,4841.39393891,8.2424242416,4449.87878743,3700.84848448,42.0,42.0,?
