Timestamp,F3 Value,F3 Quality,FC5 Value,FC5 Quality,F7 Value,F7 Quality,T7 Value,T7 Quality,P7 Value,P7 Quality,O1 Value,O1 Quality,O2 Value,O2 Quality,P8 Value,P8 Quality,T8 Value,T8 Quality,F8 Value,F8 Quality,AF4 Value,AF4 Quality,FC6 Value,FC6 Quality,F4 Value,F4 Quality,AF3 Value,AF3 Quality,X Value,Y Value,Z Value
2017-06-01 17:31:00.179451,4537.96969652,0,4223.7272723,0,3880.63636325,0,3897.12121173,0,4288.63636321,0,4451.93939349,0,4182.5151511,0,4317.48484805,0,4962.96969647,0,4192.8181814,0,4426.69696925,0,4192.8181814,0,4840.36363588,0,4479.75757531,0,42.0,42.0,?
2017-06-01 17:31:00.182405,4535.39393894,0,4220.1212117,0,3896.60606022,0,3861.57575719,0,4266.99999957,0,4452.96969652,0,4233.51515109,0,4329.84848442,0,4987.6969692,0,4203.1212117,0,4426.18181774,0,4202.09090867,0,4836.24242376,0,4503.96969652,0,42.0,42.0,?
2017-06-01 17:31:00.185340,4538.48484803,0,4223.21212079,0,3905.36363597,0,3880.12121173,0,4263.39393897,0,4452.45454501,0,4217.03030261,0,4326.75757532,0,4979.96969647,0,4207.75757534,0,4429.78787834,0,4203.63636322,0,4840.87878739,0,4503.454545,0,42.0,42.0,?
2017-06-01 17:31:00.188410,4537.96969652,0,4224.24242382,0,3918.75757537,0,3889.393939,0,4260.30302988,0,4448.33333289,0,4197.45454503,0,4321.09090866,0,4987.6969692,0,4208.27272685,0,4426.69696925,0,4201.57575716,0,4837.7878783,0,4514.27272682,0,42.0,42.0,?
2017-06-01 17:31:00.191956,4538.99999955,0,4224.75757534,0,3929.06060567,0,3882.69696931,0,4256.69696927,0,4438.03030259,0,4178.90909049,0,4310.78787836,0,4979.45454496,0,4202.60606019,0,4429.78787834,0,4202.09090867,0,4840.87878739,0,4528.69696924,0,42.0,42.0,?
2017-06-01 17:31:00.194462,4539.51515106,0,4227.33333291,0,3934.21212082,0,3888.36363597,0,4251.54545412,0,4431.84848441,0,4162.42424201,0,4308.21212078,0,4965.54545405,0,4204.66666625,0,4425.66666622,0,4202.60606019,0,4842.93939346,0,4534.87878743,0,42.0,42.0,?
2017-06-01 17:31:00.197376,4533.33333288,0,4224.75757534,0,3939.87878748,0,3901.75757537,0,4252.57575715,0,4438.03030259,0,4163.96969655,0,4311.30302987,0,4977.90909041,0,4219.09090867,0,4426.18181774,0,4202.60606019,0,4840.36363588,0,4537.454545,0,42.0,42.0,?
2017-06-01 17:31:00.200334,4538.99999955,0,4224.24242382,0,3940.393939,0,3894.54545416,0,4257.21212079,0,4449.87878743,0,4181.48484807,0,4308.7272723,0,4987.6969692,0,4224.24242382,0,4431.84848441,0,4202.09090867,0,4841.90909042,0,4537.454545,0,42.0,42.0,?
2017-06-01 17:31:00.203451,4538.99999955,0,4224.24242382,0,3931.12121173,0,3877.54545416,0,4259.78787836,0,4450.90909046,0,4194.36363594,0,4308.7272723,0,4977.3939389,0,4208.78787837,0,4426.18181774,0,4200.54545413,0,4836.24242376,0,4530.7575753,0,42.0,42.0,?
2017-06-01 17:31:00.207347,4535.90909046,0,4223.7272723,0,3914.12121173,0,3865.1818178,0,4258.24242382,0,4448.8484844,0,4205.18181776,0,4312.3333329,0,4963.9999995,0,4185.60606019,0,4428.2424238,0,4202.60606019,0,4839.84848436,0,4515.81818137,0,42.0,42.0,?
2017-06-01 17:31:00.210536,4539.51515106,0,4223.21212079,0,3898.66666628,0,3863.12121173,0,4260.81818139,0,4457.09090865,0,4220.63636321,0,4311.30302987,0,4958.84848435,0,4173.75757534,0,4428.75757531,0,4203.63636322,0,4839.84848436,0,4498.30302985,0,42.0,42.0,?
2017-06-01 17:31:00.214357,4538.48484803,0,4220.63636321,0,3900.21212082,0,3877.03030264,0,4273.18181775,0,4467.39393895,0,4234.03030261,0,4320.06060563,0,4972.75757526,0,4179.42424201,0,4428.2424238,0,4201.57575716,0,4838.30302982,0,4492.63636319,0,42.0,42.0,?
2017-06-01 17:31:00.217446,4540.54545409,0,4221.66666624,0,3901.75757537,0,3883.72727234,0,4281.93939351,0,4470.48484804,0,4232.99999958,0,4333.45454502,0,4984.09090859,0,4182.5151511,0,4431.33333289,0,4202.60606019,0,4846.03030255,0,4496.75757531,0,42.0,42.0,?
2017-06-01 17:31:00.220397,4539.51515106,0,4222.18181776,0,3895.57575719,0,3878.57575719,0,4277.81818139,0,4468.93939349,0,4222.69696927,0,4336.0303026,0,4980.48484799,0,4175.30302989,0,4425.15151471,0,4203.63636322,0,4839.33333285,0,4501.39393894,0,42.0,42.0,?
2017-06-01 17:31:00.223541,4537.454545,0,4222.18181776,0,3894.03030264,0,3879.0909087,0,4272.15151472,0,4459.66666622,0,4212.39393897,0,4331.90909048,0,4985.63636314,0,4180.45454504,0,4427.72727228,0,4204.15151473,0,4837.7878783,0,4504.99999955,0,42.0,42.0,?
2017-06-01 17:31:00.229931,4537.96969652,0,4224.24242382,0,3902.27272688,0,3880.63636325,0,4263.39393897,0,4441.63636319,0,4187.66666625,0,4322.6363632,0,4989.75757526,0,4193.33333291,0,4428.2424238,0,4204.15151473,0,4842.93939346,0,4511.69696925,0,42.0,42.0,?
2017-06-01 17:31:00.237603,4534.87878743,0,4222.69696927,0,3922.87878749,0,3887.84848446,0,4250.51515109,0,4426.18181774,0,4161.39393898,0,4312.84848442,0,4977.90909041,0,4203.63636322,0,4424.63636319,0,4201.57575716,0,4841.39393891,0,4529.72727227,0,42.0,42.0,?
2017-06-01 17:31:00.247193,4539.51515106,0,4223.7272723,0,3946.57575718,0,3897.63636325,0,4241.24242382,0,4419.48484804,0,4152.12121171,0,4310.27272684,0,4972.75757526,0,4208.78787837,0,4428.2424238,0,4202.09090867,0,4843.96969649,0,4551.87878742,0,42.0,42.0,?
2017-06-01 17:31:00.253857,4540.03030258,0,4224.24242382,0,3949.15151476,0,3888.36363597,0,4231.45454503,0,4412.27272683,0,4154.18181777,0,4303.06060563,0,4979.45454496,0,4202.09090867,0,4426.18181774,0,4201.06060564,0,4838.81818133,0,4553.93939348,0,42.0,42.0,?
2017-06-01 17:31:00.262504,4536.93939349,0,4222.18181776,0,3940.90909052,0,3876.51515113,0,4223.7272723,0,4415.87878744,0,4167.57575716,0,4295.3333329,0,4977.90909041,0,4192.8181814,0,4428.75757531,0,4202.60606019,0,4839.33333285,0,4546.21212076,0,42.0,42.0,?
2017-06-01 17:31:00.268877,4541.57575712,0,4223.7272723,0,3941.42424203,0,3887.84848446,0,4235.06060564,0,4440.09090865,0,4192.30302988,0,4295.84848442,0,4976.36363587,0,4188.18181776,0,4429.27272683,0,4205.18181776,0,4844.484848,0,4545.18181773,0,42.0,42.0,?
2017-06-01 17:31:00.277836,4536.93939349,0,4221.15151473,0,3936.78787839,0,3892.99999961,0,4257.21212079,0,4460.69696925,0,4217.54545412,0,4304.09090866,0,4976.36363587,0,4170.66666625,0,4426.69696925,0,4201.06060564,0,4840.36363588,0,4533.33333288,0,42.0,42.0,?
2017-06-01 17:31:00.285312,4536.42424197,0,4220.1212117,0,3915.66666628,0,3874.45454507,0,4269.57575715,0,4467.90909046,0,4225.78787837,0,4312.3333329,0,4966.06060556,0,4136.66666625,0,4430.81818138,0,4200.03030261,0,4841.90909042,0,4508.09090864,0,42.0,42.0,?
2017-06-01 17:31:00.292796,4539.51515106,0,4223.21212079,0,3903.30302991,0,3866.21212083,0,4272.66666624,0,4475.63636319,0,4224.75757534,0,4321.09090866,0,4959.36363587,0,4120.69696928,0,4427.21212077,0,4202.60606019,0,4839.33333285,0,4492.63636319,0,42.0,42.0,?
2017-06-01 17:31:00.301557,4537.454545,0,4222.69696927,0,3905.36363597,0,3871.87878749,0,4276.78787836,0,4479.24242379,0,4227.33333291,0,4326.24242381,0,4970.18181768,0,4135.12121171,0,4429.78787834,0,4201.06060564,0,4838.30302982,0,4493.66666622,0,42.0,42.0,?
2017-06-01 17:31:00.309024,4540.54545409,0,4224.24242382,0,3902.27272688,0,3873.93939355,0,4277.81818139,0,4472.5454541,0,4231.45454503,0,4329.3333329,0,4985.12121162,0,4153.15151474,0,4429.78787834,0,4198.99999958,0,4841.90909042,0,4501.39393894,0,42.0,42.0,?
2017-06-01 17:31:00.315424,4537.454545,0,4224.75757534,0,3903.30302991,0,3885.27272688,0,4278.33333291,0,4460.18181774,0,4231.96969655,0,4342.72727229,0,5001.60606011,0,4172.21212079,0,4422.57575713,0,4204.15151473,0,4838.81818133,0,4515.81818137,0,42.0,42.0,?
2017-06-01 17:31:00.325498,4538.99999955,0,4223.7272723,0,3915.66666628,0,3889.90909052,0,4268.54545412,0,4439.06060562,0,4209.8181814,0,4339.12121169,0,5008.81818132,0,4178.90909049,0,4428.75757531,0,4208.27272685,0,4841.39393891,0,4526.63636318,0,42.0,42.0,?
2017-06-01 17:31:00.331795,4542.60606015,0,4223.21212079,0,3926.48484809,0,3883.72727234,0,4246.39393897,0,4419.99999956,0,4176.33333292,0,4312.84848442,0,4994.90909041,0,4170.66666625,0,4428.75757531,0,4204.15151473,0,4840.87878739,0,4532.30302985,0,42.0,42.0,?
2017-06-01 17:31:00.339485,4537.454545,0,4223.21212079,0,3943.48484809,0,3894.54545416,0,4239.18181776,0,4419.48484804,0,4165.5151511,0,4306.66666624,0,4984.60606011,0,4178.39393898,0,4427.72727228,0,4203.63636322,0,4841.39393891,0,4550.84848439,0,42.0,42.0,?
2017-06-01 17:31:00.346844,4537.96969652,0,4225.27272685,0,3958.42424203,0,3903.30302991,0,4240.21212079,0,4420.51515107,0,4163.45454504,0,4310.78787836,0,4983.57575708,0,4181.48484807,0,4429.78787834,0,4204.66666625,0,4842.42424194,0,4564.24242379,0,42.0,42.0,?
2017-06-01 17:31:00.355327,4537.96969652,0,4223.7272723,0,3953.78787839,0,3893.51515113,0,4229.90909049,0,4418.96969653,0,4159.84848443,0,4297.39393896,0,4976.36363587,0,4157.78787837,0,4427.21212077,0,4200.54545413,0,4835.21212073,0,4555.99999954,0,42.0,42.0,?
2017-06-01 17:31:00.362405,4537.454545,0,4223.21212079,0,3939.36363597,0,3884.24242385,0,4220.1212117,0,4427.21212077,0,4172.72727231,0,4290.18181775,0,4967.60606011,0,4142.33333292,0,4430.30302986,0,4200.54545413,0,4841.39393891,0,4537.96969652,0,42.0,42.0,?
2017-06-01 17:31:00.372197,4540.03030258,0,4226.8181814,0,3924.42424203,0,3881.15151476,0,4230.424242,0,4437.51515107,0,4197.96969655,0,4303.57575715,0,4954.72727223,0,4143.87878746,0,4430.30302986,0,4198.99999958,0,4842.93939346,0,4515.30302985,0,42.0,42.0,?
2017-06-01 17:31:00.379500,4538.48484803,0,4224.24242382,0,3906.393939,0,3873.93939355,0,4243.30302988,0,4444.21212077,0,4202.60606019,0,4309.75757533,0,4939.78787829,0,4128.42424201,0,4428.75757531,0,4196.424242,0,4836.75757527,0,4493.66666622,0,42.0,42.0,?
2017-06-01 17:31:00.389158,4539.51515106,0,4223.21212079,0,3885.27272688,0,3855.39393901,0,4241.75757533,0,4444.21212077,0,4186.63636322,0,4298.93939351,0,4940.30302981,0,4101.12121171,0,4427.21212077,0,4196.93939352,0,4839.33333285,0,4474.09090864,0,42.0,42.0,?
2017-06-01 17:31:00.394691,4538.99999955,0,4224.75757534,0,3871.36363598,0,3845.60606022,0,4246.90909048,0,4439.06060562,0,4178.90909049,0,4298.42424199,0,4958.33333284,0,4097.51515111,0,4424.63636319,0,4198.48484806,0,4839.33333285,0,4463.27272683,0,42.0,42.0,?
2017-06-01 17:31:00.403549,4538.99999955,0,4224.75757534,0,3869.81818143,0,3858.99999961,0,4262.36363594,0,4438.5454541,0,4181.99999958,0,4310.27272684,0,4971.72727223,0,4112.45454504,0,4429.78787834,0,4203.1212117,0,4841.90909042,0,4463.78787834,0,42.0,42.0,?
2017-06-01 17:31:00.413937,4540.03030258,0,4223.7272723,0,3873.42424204,0,3874.45454507,0,4261.84848442,0,4437.51515107,0,4177.87878746,0,4315.42424199,0,4967.60606011,0,4125.33333292,0,4426.69696925,0,4203.1212117,0,4841.39393891,0,4468.42424198,0,42.0,42.0,?
2017-06-01 17:31:00.420752,4534.87878743,0,4221.66666624,0,3885.27272688,0,3873.93939355,0,4243.81818139,0,4421.03030259,0,4162.42424201,0,4311.30302987,0,4969.15151465,0,4136.15151474,0,4425.66666622,0,4199.5151511,0,4837.27272679,0,4480.27272682,0,42.0,42.0,?
2017-06-01 17:31:00.425955,4536.93939349,0,4222.18181776,0,3904.33333294,0,3869.81818143,0,4231.96969655,0,4407.12121168,0,4154.69696928,0,4310.27272684,0,4975.84848435,0,4143.87878746,0,4432.36363592,0,4202.09090867,0,4840.87878739,0,4501.90909046,0,42.0,42.0,?
2017-06-01 17:31:00.434932,4537.96969652,0,4222.69696927,0,3923.393939,0,3873.93939355,0,4229.39393897,0,4411.2424238,0,4164.48484807,0,4312.3333329,0,4971.21212072,0,4150.57575716,0,4430.30302986,0,4203.1212117,0,4840.87878739,0,4519.42424197,0,42.0,42.0,?
2017-06-01 17:31:00.445297,4535.39393894,0,4222.18181776,0,3936.27272688,0,3882.69696931,0,4228.36363594,0,4417.42424198,0,4181.99999958,0,4311.81818139,0,4970.18181768,0,4162.42424201,0,4429.27272683,0,4201.06060564,0,4839.84848436,0,4531.27272682,0,42.0,42.0,?
2017-06-01 17:31:00.454277,4539.51515106,0,4224.24242382,0,3937.30302991,0,3885.27272688,0,4228.36363594,0,4421.03030259,0,4192.8181814,0,4309.75757533,0,4977.90909041,0,4166.54545413,0,4430.81818138,0,4203.1212117,0,4841.39393891,0,4537.454545,0,42.0,42.0,?
2017-06-01 17:31:00.456737,4540.03030258,0,4223.7272723,0,3925.96969658,0,3871.36363598,0,4226.30302988,0,4429.27272683,0,4191.78787837,0,4302.54545412,0,4978.42424193,0,4150.57575716,0,4429.78787834,0,4205.18181776,0,4843.96969649,0,4531.27272682,0,42.0,42.0,?
2017-06-01 17:31:00.465742,4534.87878743,0,4220.1212117,0,3906.90909052,0,3854.36363598,0,4222.69696927,0,4435.45454501,0,4185.09090867,0,4288.12121169,0,4971.72727223,0,4126.36363595,0,4419.48484804,0,4199.5151511,0,4835.72727224,0,4508.60606016,0,42.0,42.0,?
2017-06-01 17:31:00.475013,4544.66666621,0,4222.69696927,0,3891.45454507,0,3851.27272689,0,4230.93939352,0,4435.96969653,0,4178.90909049,0,4283.99999957,0,4961.93939344,0,4115.03030262,0,4434.9393935,0,4200.54545413,0,4847.06060558,0,4486.45454501,0,42.0,42.0,?
2017-06-01 17:31:00.479889,4558.57575712,0,4230.93939352,0,3882.69696931,0,3852.81818143,0,4245.87878745,0,4435.45454501,0,4173.75757534,0,4292.24242381,0,4942.36363587,0,4107.30302989,0,4451.93939349,0,4205.69696928,0,4866.12121163,0,4472.03030258,0,42.0,42.0,?
2017-06-01 17:31:00.487431,4540.03030258,0,4228.36363594,0,3869.30302992,0,3851.7878784,0,4248.45454503,0,4433.90909047,0,4163.45454504,0,4289.15151472,0,4921.24242375,0,4087.72727232,0,4416.39393895,0,4194.87878746,0,4831.09090861,0,4452.96969652,0,42.0,42.0,?
2017-06-01 17:31:00.495870,4530.7575753,0.0,4221.15151473,0,3858.99999961,0,3856.42424204,0,4249.99999958,0,4430.30302986,0,4160.36363595,0,4287.09090866,0,4914.03030254,0,4079.99999959,0,4416.39393895,0,4191.27272685,0,4821.81818134,0,4444.21212077,0,42.0,42.0,?
2017-06-01 17:31:00.503360,4543.63636318,0.0,4225.27272685,0.0,3864.15151477,0,3865.69696931,0,4259.27272685,0,4432.36363592,0,4169.63636322,0,4302.0303026,0,4927.42424193,0,4096.99999959,0,4437.51515107,0,4204.15151473,0,4847.06060558,0,4456.06060561,0,42.0,42.0,?
2017-06-01 17:31:00.514266,4536.93939349,0.0,4227.84848443,0.0,3879.60606022,0,3870.33333295,0,4260.81818139,0,4435.45454501,0,4179.42424201,0,4312.84848442,0,4956.78787829,0,4115.54545413,0,4422.57575713,0,4203.63636322,0,4834.1818177,0,4469.96969652,3832.72727234,42.0,42.0,?
2017-06-01 17:31:00.520282,4535.90909046,0.0,4224.75757534,0.0,3890.42424204,98.9090908992,3871.87878749,0,4247.93939351,0,4432.36363592,0,4184.57575716,0,4312.3333329,0,4975.84848435,0,4126.36363595,0,4427.72727228,0,4198.48484806,0,4837.7878783,0,4478.21212076,3832.72727234,42.0,42.0,?
2017-06-01 17:31:00.526968,4541.57575712,0.0,4222.18181776,0.0,3890.93939355,98.9090908992,3854.36363598,284.363636335,4232.99999958,0,4422.57575713,0,4176.84848443,0,4307.18181775,0,4966.06060556,0,4125.84848444,0,4431.33333289,0,4201.06060564,0,4844.99999952,0,4482.8484844,3832.72727234,42.0,42.0,?
2017-06-01 17:31:00.534872,4535.39393894,0.0,4221.66666624,0.0,3892.99999961,98.9090908992,3837.87878749,284.363636335,4225.27272685,2823.03030275,4414.33333289,0,4171.18181776,0,4307.69696927,0,4958.84848435,0,4129.45454504,0,4425.66666622,0,4201.57575716,0,4833.15151467,0,4494.18181773,3832.72727234,42.0,42.0,?
2017-06-01 17:31:00.544491,4538.99999955,0.0,4225.78787837,0.0,3901.75757537,98.9090908992,3851.7878784,284.363636335,4226.8181814,2823.03030275,4418.45454501,1735.03030286,4180.96969655,0,4310.27272684,0,4977.3939389,0,4149.03030262,0,4431.84848441,0,4203.1212117,0,4839.84848436,0,4506.54545409,3832.72727234,42.0,42.0,?
2017-06-01 17:31:00.552241,4542.60606015,0.0,4225.78787837,0.0,3905.36363597,98.9090908992,3867.24242386,284.363636335,4229.90909049,2823.03030275,4424.12121168,1735.03030286,4185.09090867,2851.87878759,4306.66666624,0,4989.75757526,0,4162.93939352,0,4429.27272683,0,4203.63636322,0,4841.90909042,0,4503.96969652,3832.72727234,42.0,42.0,?
2017-06-01 17:31:00.560906,4537.96969652,0.0,4221.15151473,0.0,3900.21212082,98.9090908992,3857.45454507,284.363636335,4226.8181814,2823.03030275,4422.57575713,1735.03030286,4171.69696928,2851.87878759,4293.78787836,1388.84848471,4969.15151465,0,4147.48484807,0,4427.72727228,0,4202.60606019,0,4837.27272679,0,4498.30302985,3832.72727234,42.0,42.0,?
2017-06-01 17:31:00.565479,4540.54545409,0.0,4224.24242382,0.0,3892.99999961,98.9090908992,3847.15151477,284.363636335,4218.06060564,2823.03030275,4424.63636319,1735.03030286,4157.27272686,2851.87878759,4275.75757533,1388.84848471,4933.0909086,2987.87878758,4113.48484807,0,4429.27272683,0,4196.93939352,0,4839.84848436,0,4494.18181773,3832.72727234,42.0,42.0,?
2017-06-01 17:31:00.573795,4537.454545,0.0,4224.24242382,0.0,3884.75757537,98.9090908992,3854.36363598,284.363636335,4218.57575715,2823.03030275,4434.42424198,1735.03030286,4156.24242383,2851.87878759,4269.06060563,1388.84848471,4922.27272678,2987.87878758,4087.72727232,16.4848484832,4425.15151471,0,4193.33333291,0,4838.81818133,0,4476.1515147,3832.72727234,42.0,42.0,?
2017-06-01 17:31:00.583434,4534.36363591,0.0,4223.21212079,0.0,3867.75757537,98.9090908992,3855.90909052,284.363636335,4235.57575715,2823.03030275,4440.60606016,1735.03030286,4166.54545413,2851.87878759,4276.78787836,1388.84848471,4935.15151466,2987.87878758,4079.48484808,16.4848484832,4429.27272683,0.0,4196.424242,0,4841.39393891,0,4447.30302986,3832.72727234,42.0,42.0,?
2017-06-01 17:31:00.590126,4539.51515106,0.0,4226.8181814,0.0,3852.81818143,98.9090908992,3844.06060568,284.363636335,4248.96969654,2823.03030275,4439.57575713,1735.03030286,4176.84848443,2851.87878759,4292.24242381,1388.84848471,4936.6969692,2987.87878758,4079.99999959,16.4848484832,4429.27272683,0.0,4195.39393897,8.2424242416,4840.36363588,0,4433.90909047,3832.72727234,42.0,42.0,?
2017-06-01 17:31:00.598991,4537.96969652,0.0,4223.21212079,0.0,3852.81818143,98.9090908992,3835.81818143,284.363636335,4242.78787836,2823.03030275,4434.42424198,1735.03030286,4181.48484807,2851.87878759,4300.48484805,1388.84848471,4932.06060557,2987.87878758,4079.99999959,16.4848484832,4426.69696925,0.0,4194.36363594,8.2424242416,4836.75757527,0.0,4441.12121168,3832.72727234,42.0,42.0,?
2017-06-01 17:31:00.606343,4538.99999955,0.0,4221.15151473,0.0,3852.81818143,98.9090908992,3833.75757537,284.363636335,4231.45454503,2823.03030275,4430.81818138,1735.03030286,4188.69696928,2851.87878759,4302.0303026,1388.84848471,4941.33333284,2987.87878758,4083.09090868,20.606060604,4428.75757531,0.0,4199.5151511,8.2424242416,4838.81818133,0.0,4446.78787834,3832.72727234,42.0,42.0,?
2017-06-01 17:31:00.612401,4539.51515106,0.0,4224.24242382,0.0,3854.87878749,98.9090908992,3837.87878749,284.363636335,4235.57575715,2823.03030275,4432.36363592,1735.03030286,4200.54545413,2851.87878759,4313.36363593,1388.84848471,4960.3939389,2987.87878758,4102.66666626,20.606060604,4427.21212077,0.0,4202.09090867,8.2424242416,4835.72727224,0.0,4451.93939349,3832.72727234,42.0,42.0,?
2017-06-01 17:31:00.622143,4537.454545,0.0,4225.78787837,0.0,3873.93939355,98.9090908992,3847.66666628,284.363636335,4241.75757533,2823.03030275,4430.81818138,1735.03030286,4195.90909049,2851.87878759,4322.12121169,1388.84848471,4961.42424193,2987.87878758,4124.30302989,20.606060604,4430.81818138,0.0,4201.57575716,4.1212121208,4838.30302982,0.0,4472.5454541,3832.72727234,42.0,42.0,?
2017-06-01 17:31:00.629142,4539.51515106,0.0,4225.27272685,0.0,3889.90909052,98.9090908992,3857.45454507,284.363636335,4232.48484806,2823.03030275,4417.9393935,1735.03030286,4164.99999958,2851.87878759,4304.60606018,1388.84848471,4950.60606011,2987.87878758,4128.42424201,20.606060604,4430.81818138,0.0,4199.5151511,4.1212121208,4841.39393891,0.0,4490.57575713,3832.72727234,42.0,42.0,?
2017-06-01 17:31:00.636356,4536.93939349,0.0,4222.69696927,0.0,3895.06060567,98.9090908992,3862.0909087,284.363636335,4222.69696927,2823.03030275,4406.09090865,1735.03030286,4138.2121208,2851.87878759,4282.45454503,1388.84848471,4953.18181769,2987.87878758,4127.9090905,20.606060604,4427.21212077,0.0,4199.5151511,4.1212121208,4837.27272679,0.0,4493.66666622,3832.72727234,42.0,42.0,?
2017-06-01 17:31:00.646332,4538.99999955,0.0,4224.24242382,0.0,3900.72727234,98.9090908992,3865.69696931,284.363636335,4225.27272685,2823.03030275,4408.66666623,1735.03030286,4131.5151511,2851.87878759,4278.33333291,1388.84848471,4956.78787829,2987.87878758,4137.18181777,20.606060604,4428.75757531,0.0,4202.09090867,4.1212121208,4839.33333285,0.0,4495.72727228,3832.72727234,42.0,42.0,?
2017-06-01 17:31:00.651803,4541.06060561,0.0,4226.8181814,0.0,3902.27272688,98.9090908992,3874.45454507,284.363636335,4231.96969655,2823.03030275,4415.87878744,1735.03030286,4129.45454504,2851.87878759,4274.7272723,1388.84848471,4954.72727223,2987.87878758,4149.54545413,20.606060604,4426.69696925,0.0,4202.60606019,4.1212121208,4840.36363588,0.0,4496.75757531,3832.72727234,42.0,42.0,?
2017-06-01 17:31:00.659484,4536.93939349,0.0,4223.7272723,0.0,3896.0909087,98.9090908992,3875.4848481,284.363636335,4226.30302988,2823.03030275,4414.84848441,1735.03030286,4129.45454504,2851.87878759,4267.51515109,1388.84848471,4952.66666617,2987.87878758,4145.42424201,20.606060604,4428.2424238,0.0,4201.06060564,4.1212121208,4841.39393891,0.0,4486.96969652,3832.72727234,42.0,42.0,?
2017-06-01 17:31:00.669225,4540.03030258,0.0,4224.24242382,0.0,3885.27272688,98.9090908992,3852.81818143,284.363636335,4215.48484806,2823.03030275,4418.45454501,1735.03030286,4139.75757534,2851.87878759,4268.0303026,1388.84848471,4938.75757526,2987.87878758,4120.18181777,20.606060604,4427.72727228,0.0,4198.48484806,4.1212121208,4840.87878739,0.0,4475.12121167,3832.72727234,42.0,42.0,?
2017-06-01 17:31:00.680636,4540.03030258,0.0,4225.78787837,0.0,3873.42424204,98.9090908992,3834.7878784,284.363636335,4218.57575715,2823.03030275,4429.27272683,1735.03030286,4161.39393898,2851.87878759,4276.27272685,1388.84848471,4923.81818133,2987.87878758,4104.2121208,20.606060604,4426.18181774,0.0,4196.424242,4.1212121208,4838.81818133,0.0,4470.99999955,3832.72727234,42.0,42.0,?
2017-06-01 17:31:00.685208,4538.99999955,0.0,4223.7272723,0.0,3863.12121173,98.9090908992,3837.36363598,284.363636335,4229.39393897,2823.03030275,4435.45454501,1735.03030286,4187.66666625,2851.87878759,4289.15151472,1388.84848471,4929.48484799,2987.87878758,4110.39393898,20.606060604,4429.78787834,0.0,4201.06060564,4.1212121208,4842.42424194,0.0,4461.72727228,3832.72727234,42.0,42.0,?
2017-06-01 17:31:00.691525,4538.99999955,0.0,4219.60606018,0.0,3862.60606022,98.9090908992,3837.36363598,284.363636335,4235.06060564,2823.03030275,4441.12121168,1735.03030286,4210.33333291,2851.87878759,4306.15151472,1388.84848471,4943.90909041,2987.87878758,4116.06060565,20.606060604,4426.69696925,0.0,4202.09090867,4.1212121208,4840.87878739,0.0,4450.39393895,3832.72727234,42.0,42.0,?
2017-06-01 17:31:00.699315,4538.99999955,0.0,4219.09090867,0.0,3870.33333295,98.9090908992,3836.84848446,284.363636335,4239.18181776,2823.03030275,4446.78787834,1735.03030286,4218.57575715,2851.87878759,4319.0303026,1388.84848471,4951.63636314,2987.87878758,4122.75757535,20.606060604,4426.18181774,0.0,4198.99999958,4.1212121208,4839.33333285,0.0,4454.51515107,3832.72727234,42.0,42.0,?
2017-06-01 17:31:00.707247,4542.60606015,0.0,4223.7272723,0.0,3872.39393901,98.9090908992,3845.60606022,284.363636335,4241.75757533,2823.03030275,4442.66666622,1735.03030286,4214.45454503,2851.87878759,4315.93939351,1388.84848471,4966.57575708,2987.87878758,4130.48484807,20.606060604,4427.72727228,0.0,4200.03030261,4.1212121208,4839.84848436,0.0,4467.90909046,3832.72727234,42.0,42.0,?
2017-06-01 17:31:00.714663,4538.48484803,0.0,4221.66666624,0.0,3871.87878749,98.9090908992,3856.42424204,284.363636335,4238.15151473,2823.03030275,4433.90909047,1735.03030286,4202.09090867,2851.87878759,4307.69696927,1388.84848471,4984.09090859,2987.87878758,4127.9090905,20.606060604,4426.18181774,0.0,4202.60606019,4.1212121208,4837.27272679,0.0,4473.06060561,3832.72727234,42.0,42.0,?
2017-06-01 17:31:00.724342,4536.93939349,0.0,4219.60606018,0.0,3877.03030264,98.9090908992,3859.51515113,284.363636335,4227.84848443,2823.03030275,4423.60606016,1735.03030286,4175.30302989,2851.87878759,4305.12121169,1388.84848471,4970.6969692,2987.87878758,4120.69696928,20.606060604,4429.78787834,0.0,4199.5151511,4.1212121208,4842.93939346,0.0,4471.51515107,3832.72727234,42.0,42.0,?
2017-06-01 17:31:00.730755,4540.03030258,0.0,4223.7272723,0.0,3885.7878784,98.9090908992,3852.30302992,284.363636335,4221.66666624,2823.03030275,4411.2424238,1735.03030286,4138.72727231,2851.87878759,4298.93939351,1388.84848471,4940.81818132,2987.87878758,4119.66666625,20.606060604,4429.27272683,0.0,4194.87878746,4.1212121208,4843.96969649,0.0,4480.27272682,3832.72727234,42.0,42.0,?
2017-06-01 17:31:00.738364,4537.454545,0.0,4223.7272723,0.0,3901.75757537,98.9090908992,3850.75757537,284.363636335,4222.18181776,2823.03030275,4400.9393935,1735.03030286,4112.96969656,2851.87878759,4287.60606018,1388.84848471,4938.24242375,2987.87878758,4123.78787838,20.606060604,4429.78787834,0.0,4198.48484806,4.1212121208,4840.87878739,0.0,4499.33333288,3832.72727234,42.0,42.0,?
2017-06-01 17:31:00.745864,4540.03030258,0.0,4223.7272723,0.0,3908.45454506,98.9090908992,3862.0909087,284.363636335,4219.60606018,2823.03030275,4397.33333289,1735.03030286,4105.75757535,2851.87878759,4274.7272723,1388.84848471,4944.93939344,2987.87878758,4128.93939353,20.606060604,4429.78787834,0.0,4201.57575716,4.1212121208,4840.87878739,0.0,4508.60606016,3832.72727234,42.0,42.0,?
2017-06-01 17:31:00.753377,4538.48484803,0.0,4222.69696927,0.0,3896.60606022,98.9090908992,3868.7878784,284.363636335,4211.36363594,2823.03030275,4403.51515107,1735.03030286,4120.69696928,2851.87878759,4269.06060563,1388.84848471,4936.6969692,2987.87878758,4135.12121171,20.606060604,4426.69696925,0.0,4200.54545413,4.1212121208,4837.7878783,0.0,4499.33333288,3832.72727234,42.0,42.0,?
2017-06-01 17:31:00.762274,4538.48484803,0.0,4224.24242382,0.0,3883.21212082,98.9090908992,3856.93939355,284.363636335,4209.8181814,2823.03030275,4413.30302986,1735.03030286,4154.18181777,2851.87878759,4274.21212078,1388.84848471,4935.66666617,2987.87878758,4136.66666625,20.606060604,4429.78787834,0.0,4200.54545413,4.1212121208,4841.90909042,0.0,4484.39393895,3832.72727234,42.0,42.0,?
2017-06-01 17:31:00.769414,4542.60606015,0.0,4226.8181814,0.0,3874.96969658,98.9090908992,3844.06060568,284.363636335,4210.84848443,2823.03030275,4417.42424198,1735.03030286,4177.36363595,2851.87878759,4280.90909048,1388.84848471,4941.33333284,2987.87878758,4121.72727232,20.606060604,4427.72727228,0.0,4198.48484806,4.1212121208,4841.39393891,0.0,4472.5454541,3832.72727234,42.0,42.0,?
2017-06-01 17:31:00.779628,4538.48484803,0.0,4224.24242382,0.0,3865.69696931,98.9090908992,3848.1818178,284.363636335,4214.96969655,2823.03030275,4425.66666622,1735.03030286,4185.60606019,2851.87878759,4287.60606018,1388.84848471,4936.18181769,2987.87878758,4099.06060565,20.606060604,4424.63636319,0.0,4198.99999958,4.1212121208,4837.7878783,0.0,4458.63636319,3832.72727234,42.0,42.0,?
2017-06-01 17:31:00.786169,4540.54545409,0.0,4223.7272723,0.0,3852.30302992,98.9090908992,3848.1818178,284.363636335,4225.27272685,2823.03030275,4436.99999956,1735.03030286,4193.84848443,2851.87878759,4294.30302987,1388.84848471,4927.42424193,2987.87878758,4090.81818141,20.606060604,4428.75757531,0.0,4198.99999958,4.1212121208,4842.42424194,0.0,4440.60606016,3832.72727234,42.0,42.0,?
2017-06-01 17:31:00.794461,4540.54545409,0.0,4222.69696927,0.0,3846.12121174,98.9090908992,3844.06060568,284.363636335,4233.51515109,2823.03030275,4437.51515107,1735.03030286,4201.06060564,2851.87878759,4300.99999957,1388.84848471,4938.24242375,2987.87878758,4104.72727232,20.606060604,4429.78787834,0.0,4194.36363594,4.1212121208,4841.90909042,0.0,4433.39393895,3832.72727234,42.0,42.0,?
2017-06-01 17:31:00.801931,4537.454545,0.0,4223.21212079,0.0,3848.69696931,98.9090908992,3844.06060568,284.363636335,4235.57575715,2823.03030275,4433.90909047,1735.03030286,4196.424242,2851.87878759,4306.15151472,1388.84848471,4957.81818132,2987.87878758,4120.18181777,20.606060604,4429.27272683,0.0,4197.96969655,4.1212121208,4843.96969649,0.0,4441.63636319,3832.72727234,42.0,42.0,?
2017-06-01 17:31:00.808416,4541.06060561,0.0,4225.27272685,0.0,3850.75757537,98.9090908992,3838.90909053,284.363636335,4231.96969655,2823.03030275,4435.45454501,1735.03030286,4180.45454504,2851.87878759,4304.09090866,1388.84848471,4958.84848435,2987.87878758,4122.24242383,20.606060604,4426.18181774,0.0,4203.63636322,4.1212121208,4844.484848,0.0,4450.39393895,3832.72727234,42.0,42.0,?
2017-06-01 17:31:00.818518,4538.48484803,0.0,4223.7272723,0.0,3861.06060567,98.9090908992,3838.39393901,284.363636335,4233.51515109,2823.03030275,4434.9393935,1735.03030286,4172.72727231,2851.87878759,4303.57575715,1388.84848471,4955.24242375,2987.87878758,4133.57575716,20.606060604,4426.18181774,0.0,4201.06060564,4.1212121208,4839.33333285,0.0,4465.33333289,3832.72727234,42.0,42.0,?
2017-06-01 17:31:00.826473,4538.48484803,0.0,4224.24242382,0.0,3880.63636325,98.9090908992,3848.69696931,284.363636335,4234.03030261,2823.03030275,4425.15151471,1735.03030286,4164.48484807,2851.87878759,4305.63636321,1388.84848471,4958.84848435,2987.87878758,4149.54545413,20.606060604,4428.2424238,0.0,4200.03030261,4.1212121208,4841.39393891,0.0,4482.8484844,3832.72727234,42.0,42.0,?
2017-06-01 17:31:00.832269,4540.54545409,0.0,4224.24242382,0.0,3893.51515113,98.9090908992,3854.87878749,284.363636335,4224.24242382,2823.03030275,4410.72727229,1735.03030286,4137.69696928,2851.87878759,4297.90909048,1388.84848471,4953.6969692,2987.87878758,4143.87878746,20.606060604,4424.12121168,0.0,4201.06060564,4.1212121208,4841.39393891,0.0,4489.5454541,3832.72727234,42.0,42.0,?
2017-06-01 17:31:00.840195,4538.99999955,0.0,4222.69696927,0.0,3892.4848481,98.9090908992,3849.21212083,284.363636335,4213.93939352,2823.03030275,4404.03030259,1735.03030286,4109.87878747,2851.87878759,4280.39393897,1388.84848471,4942.36363587,2987.87878758,4131.5151511,20.606060604,4427.21212077,0.0,4200.54545413,4.1212121208,4843.96969649,0.0,4492.63636319,3832.72727234,42.0,42.0,?
2017-06-01 17:31:00.847427,4540.54545409,0.0,4226.30302988,0.0,3890.93939355,98.9090908992,3847.66666628,284.363636335,4214.45454503,2823.03030275,4407.6363632,1735.03030286,4101.12121171,2851.87878759,4264.93939351,1388.84848471,4942.87878738,2987.87878758,4133.06060565,20.606060604,4430.30302986,0.0,4201.57575716,4.1212121208,4843.45454497,0.0,4499.33333288,3832.72727234,42.0,42.0,?
2017-06-01 17:31:00.856183,4538.48484803,0.0,4226.30302988,0.0,3892.99999961,98.9090908992,3857.45454507,284.363636335,4215.48484806,2823.03030275,4407.6363632,1735.03030286,4115.54545413,2851.87878759,4262.36363594,1388.84848471,4954.72727223,2987.87878758,4146.96969656,20.606060604,4428.2424238,0.0,4203.63636322,4.1212121208,4837.7878783,0.0,4506.54545409,3832.72727234,42.0,42.0,?
2017-06-01 17:31:00.865365,4538.99999955,0.0,4222.69696927,0.0,3888.87878749,98.9090908992,3859.51515113,284.363636335,4202.60606019,2823.03030275,4407.12121168,1735.03030286,4143.87878746,2851.87878759,4269.57575715,1388.84848471,4958.33333284,2987.87878758,4157.27272686,20.606060604,4429.78787834,0.0,4200.54545413,4.1212121208,4840.87878739,0.0,4506.03030258,3832.72727234,42.0,42.0,?
2017-06-01 17:31:00.871104,4537.96969652,0.0,4224.75757534,0.0,3888.36363597,98.9090908992,3855.39393901,284.363636335,4197.96969655,2823.03030275,4411.75757532,1735.03030286,4174.27272686,2851.87878759,4281.424242,1388.84848471,4950.0909086,2987.87878758,4154.18181777,20.606060604,4428.75757531,0.0,4197.96969655,4.1212121208,4841.39393891,0.0,4500.87878743,3832.72727234,42.0,42.0,?
2017-06-01 17:31:00.878442,4534.87878743,0.0,4225.78787837,0.0,3892.99999961,98.9090908992,3852.81818143,284.363636335,4206.72727231,2823.03030275,4416.90909047,1735.03030286,4194.36363594,2851.87878759,4292.24242381,1388.84848471,4945.45454496,2987.87878758,4140.27272686,20.606060604,4428.2424238,0.0,4199.5151511,4.1212121208,4840.36363588,0.0,4497.27272682,3832.72727234,42.0,42.0,?
2017-06-01 17:31:00.886910,4541.06060561,0.0,4223.7272723,0.0,3883.72727234,98.9090908992,3846.63636325,284.363636335,4214.45454503,2823.03030275,4425.66666622,1735.03030286,4199.5151511,2851.87878759,4302.54545412,1388.84848471,4943.90909041,2987.87878758,4126.36363595,20.606060604,4426.18181774,0.0,4196.93939352,4.1212121208,4839.84848436,0.0,4485.93939349,3832.72727234,42.0,42.0,?
2017-06-01 17:31:00.894337,4542.09090864,0.0,4223.7272723,0.0,3873.42424204,98.9090908992,3851.27272689,284.363636335,4222.18181776,2823.03030275,4430.81818138,1735.03030286,4201.06060564,2851.87878759,4312.84848442,1388.84848471,4941.33333284,2987.87878758,4121.72727232,20.606060604,4425.15151471,0.0,4196.93939352,4.1212121208,4836.75757527,0.0,4470.48484804,3832.72727234,42.0,42.0,?
2017-06-01 17:31:00.904171,4541.57575712,0.0,4226.8181814,0.0,3875.4848481,98.9090908992,3869.30302992,284.363636335,4225.78787837,2823.03030275,4423.09090865,1735.03030286,4191.27272685,2851.87878759,4309.75757533,1388.84848471,4945.45454496,2987.87878758,4113.48484807,20.606060604,4429.27272683,0.0,4200.03030261,4.1212121208,4842.42424194,0.0,4465.33333289,3832.72727234,42.0,42.0,?
2017-06-01 17:31:00.911413,4542.60606015,0.0,4226.8181814,0.0,3878.06060567,98.9090908992,3869.30302992,284.363636335,4222.18181776,2823.03030275,4415.36363592,1735.03030286,4163.45454504,2851.87878759,4295.84848442,1388.84848471,4952.66666617,2987.87878758,4101.63636323,20.606060604,4426.18181774,0.0,4196.93939352,4.1212121208,4842.42424194,0.0,4464.81818137,3832.72727234,42.0,42.0,?
2017-06-01 17:31:00.919221,4538.99999955,0.0,4223.21212079,0.0,3868.7878784,98.9090908992,3846.63636325,284.363636335,4223.7272723,2823.03030275,4417.9393935,1735.03030286,4142.33333292,2851.87878759,4282.96969654,1388.84848471,4943.90909041,2987.87878758,4101.63636323,20.606060604,4428.2424238,0.0,4195.90909049,4.1212121208,4839.84848436,0.0,4462.2424238,3832.72727234,42.0,42.0,?
2017-06-01 17:31:00.929509,4538.48484803,0.0,4223.7272723,0.0,3855.90909052,98.9090908992,3840.96969659,284.363636335,4228.87878746,2823.03030275,4418.45454501,1735.03030286,4136.66666625,2851.87878759,4273.69696927,1388.84848471,4920.21212072,2987.87878758,4104.72727232,20.606060604,4431.33333289,0.0,4198.99999958,4.1212121208,4842.93939346,0.0,4454.51515107,3832.72727234,42.0,42.0,?
2017-06-01 17:31:00.934653,4535.39393894,0.0,4221.66666624,0.0,3851.27272689,98.9090908992,3854.36363598,284.363636335,4225.78787837,2823.03030275,4415.87878744,1735.03030286,4128.42424201,2851.87878759,4268.54545412,1388.84848471,4915.57575708,2987.87878758,4105.24242383,20.606060604,4428.2424238,0.0,4197.96969655,4.1212121208,4840.36363588,0.0,4446.78787834,3832.72727234,42.0,42.0,?
2017-06-01 17:31:00.943196,4536.93939349,0.0,4223.7272723,0.0,3861.57575719,98.9090908992,3854.36363598,284.363636335,4221.66666624,2823.03030275,4418.45454501,1735.03030286,4114.5151511,2851.87878759,4270.09090866,1388.84848471,4932.57575708,2987.87878758,4110.39393898,20.606060604,4430.81818138,0.0,4198.99999958,4.1212121208,4839.33333285,0.0,4455.5454541,3832.72727234,42.0,42.0,?
2017-06-01 17:31:00.953820,4539.51515106,0.0,4225.27272685,0.0,3879.60606022,98.9090908992,3843.54545416,284.363636335,4218.06060564,2823.03030275,4418.45454501,1735.03030286,4110.39393898,2851.87878759,4266.99999957,1388.84848471,4934.63636314,2987.87878758,4122.24242383,20.606060604,4429.27272683,0.0,4202.09090867,4.1212121208,4838.81818133,0.0,4478.72727228,3832.72727234,42.0,42.0,?
2017-06-01 17:31:00.959058,4534.36363591,0.0,4217.03030261,0.0,3891.45454507,98.9090908992,3840.96969659,284.363636335,4209.8181814,2823.03030275,4415.36363592,1735.03030286,4122.75757535,2851.87878759,4254.63636321,1388.84848471,4926.3939389,2987.87878758,4133.06060565,20.606060604,4428.75757531,0.0,4201.06060564,4.1212121208,4839.33333285,0.0,4494.18181773,3832.72727234,42.0,42.0,?
2017-06-01 17:31:00.965469,4537.96969652,0.0,4217.54545412,0.0,3889.90909052,98.9090908992,3846.12121174,284.363636335,4210.84848443,2823.03030275,4419.99999956,1735.03030286,4147.48484807,2851.87878759,4260.81818139,1388.84848471,4937.21212072,2987.87878758,4144.90909049,20.606060604,4430.30302986,0.0,4203.63636322,4.1212121208,4841.39393891,0.0,4495.21212076,3832.72727234,42.0,42.0,?
2017-06-01 17:31:00.975008,4540.54545409,0.0,4224.75757534,0.0,3890.93939355,98.9090908992,3854.36363598,284.363636335,4222.18181776,2823.03030275,4429.78787834,1735.03030286,4178.90909049,2851.87878759,4290.69696927,1388.84848471,4962.45454496,2987.87878758,4163.96969655,20.606060604,4426.18181774,0.0,4203.63636322,4.1212121208,4837.7878783,0.0,4500.87878743,3832.72727234,42.0,42.0,?
2017-06-01 17:31:00.981169,4540.03030258,0.0,4226.8181814,0.0,3897.12121173,98.9090908992,3862.0909087,284.363636335,4224.75757534,2823.03030275,4431.84848441,1735.03030286,4201.06060564,2851.87878759,4306.15151472,1388.84848471,4973.27272678,2987.87878758,4169.63636322,20.606060604,4428.75757531,0.0,4200.03030261,4.1212121208,4841.39393891,0.0,4505.51515106,3832.72727234,42.0,42.0,?
2017-06-01 17:31:00.990007,4540.54545409,0.0,4225.27272685,0.0,3891.45454507,98.9090908992,3856.42424204,284.363636335,4215.99999958,2823.03030275,4427.21212077,1735.03030286,4201.57575716,2851.87878759,4304.60606018,1388.84848471,4968.63636314,2987.87878758,4148.5151511,20.606060604,4427.72727228,0.0,4199.5151511,4.1212121208,4842.93939346,0.0,4495.21212076,3832.72727234,42.0,42.0,?
2017-06-01 17:31:00.996832,4535.39393894,0.0,4223.7272723,0.0,3872.39393901,98.9090908992,3848.1818178,284.363636335,4211.36363594,2823.03030275,4423.09090865,1735.03030286,4190.24242382,2851.87878759,4306.66666624,1388.84848471,4961.93939344,2987.87878758,4124.81818141,20.606060604,4426.18181774,0.0,4200.03030261,4.1212121208,4840.87878739,0.0,4473.57575713,3832.72727234,42.0,42.0,?
2017-06-01 17:31:01.003357,4538.48484803,0.0,4224.24242382,0.0,3850.24242386,98.9090908992,3840.96969659,284.363636335,4213.424242,2823.03030275,4419.99999956,1735.03030286,4175.30302989,2851.87878759,4299.45454502,1388.84848471,4940.30302981,2987.87878758,4106.27272686,20.606060604,4429.27272683,0.0,4196.424242,4.1212121208,4843.96969649,0.0,4448.33333289,3832.72727234,42.0,42.0,?
2017-06-01 17:31:01.011892,4539.51515106,0.0,4223.7272723,4.1212121208,3837.87878749,98.9090908992,3833.75757537,284.363636335,4218.57575715,2823.03030275,4424.63636319,1735.03030286,4161.90909049,2851.87878759,4281.424242,1388.84848471,4913.51515102,2987.87878758,4085.15151474,20.606060604,4426.69696925,0.0,4191.27272685,4.1212121208,4840.36363588,0.0,4432.87878744,3832.72727234,42.0,42.0,?
2017-06-01 17:31:01.022898,4535.90909046,0.0,4222.69696927,4.1212121208,3839.93939356,98.9090908992,3832.21212083,284.363636335,4226.8181814,2823.03030275,4431.84848441,1735.03030286,4153.66666625,2851.87878759,4275.75757533,1388.84848471,4905.27272678,2987.87878758,4073.81818141,20.606060604,4427.72727228,0.0,4195.39393897,4.1212121208,4838.81818133,0.0,4437.51515107,3836.84848446,42.0,42.0,?
2017-06-01 17:31:01.030615,4539.51515106,0.0,4223.21212079,4.1212121208,3852.81818143,111.272727262,3833.75757537,284.363636335,4230.93939352,2823.03030275,4427.72727228,1735.03030286,4146.45454504,2851.87878759,4274.21212078,1388.84848471,4905.27272678,2987.87878758,4086.18181777,20.606060604,4427.72727228,0.0,4196.93939352,4.1212121208,4837.7878783,0.0,4451.93939349,3836.84848446,42.0,42.0,?
2017-06-01 17:31:01.035890,4538.48484803,0.0,4223.21212079,4.1212121208,3870.33333295,111.272727262,3844.06060568,284.363636335,4232.48484806,2823.03030275,4420.51515107,1735.03030286,4141.30302989,2851.87878759,4274.21212078,1388.84848471,4915.06060557,2987.87878758,4112.96969656,20.606060604,4427.72727228,0.0,4196.424242,4.1212121208,4835.72727224,0.0,4468.93939349,3836.84848446,42.0,42.0,?
2017-06-01 17:31:01.042396,4538.99999955,0.0,4226.30302988,4.1212121208,3880.12121173,111.272727262,3855.39393901,284.363636335,4231.45454503,2831.27272699,4415.36363592,1735.03030286,4136.15151474,2851.87878759,4282.45454503,1388.84848471,4938.75757526,2987.87878758,4135.63636322,20.606060604,4431.33333289,0.0,4202.60606019,4.1212121208,4841.90909042,0.0,4481.81818137,3836.84848446,42.0,42.0,?
2017-06-01 17:31:01.053489,4538.99999955,0.0,4225.78787837,4.1212121208,3880.12121173,111.272727262,3856.93939355,284.363636335,4226.30302988,2831.27272699,4407.6363632,1730.90909074,4129.45454504,2851.87878759,4287.60606018,1388.84848471,4962.45454496,2987.87878758,4153.15151474,20.606060604,4427.21212077,0.0,4203.63636322,4.1212121208,4841.90909042,0.0,4486.96969652,3836.84848446,42.0,42.0,?
2017-06-01 17:31:01.059288,4537.454545,0.0,4223.21212079,4.1212121208,3885.7878784,111.272727262,3862.60606022,284.363636335,4222.18181776,2831.27272699,4401.45454501,1730.90909074,4129.45454504,2851.87878759,4285.54545412,1388.84848471,4975.33333284,2987.87878758,4168.60606019,20.606060604,4426.18181774,0.0,4200.03030261,4.1212121208,4842.42424194,0.0,4496.75757531,3836.84848446,42.0,42.0,?
2017-06-01 17:31:01.066501,4541.57575712,0.0,4226.8181814,4.1212121208,3890.93939355,111.272727262,3868.27272689,284.363636335,4214.96969655,2831.27272699,4402.48484804,1730.90909074,4133.06060565,2851.87878759,4276.27272685,1392.96969683,4965.54545405,2987.87878758,4168.09090867,20.606060604,4426.18181774,0.0,4200.54545413,4.1212121208,4843.96969649,0.0,4502.93939349,3836.84848446,42.0,42.0,?
2017-06-01 17:31:01.075240,4537.96969652,0.0,4225.27272685,4.1212121208,3888.36363597,111.272727262,3860.54545416,284.363636335,4207.24242382,2831.27272699,4407.12121168,1730.90909074,4143.36363595,2851.87878759,4262.87878745,1392.96969683,4939.78787829,2996.12121182,4157.78787837,20.606060604,4425.66666622,0.0,4203.63636322,4.1212121208,4839.33333285,0.0,4496.24242379,3836.84848446,42.0,42.0,?
2017-06-01 17:31:01.082521,4536.93939349,0.0,4223.7272723,4.1212121208,3887.33333294,111.272727262,3853.84848446,284.363636335,4211.87878746,2831.27272699,4419.99999956,1730.90909074,4171.69696928,2851.87878759,4270.09090866,1392.96969683,4944.93939344,2996.12121182,4154.69696928,16.4848484832,4428.75757531,0.0,4200.54545413,4.1212121208,4841.90909042,0.0,4491.60606016,3836.84848446,42.0,42.0,?
2017-06-01 17:31:01.090226,4539.51515106,0.0,4224.75757534,4.1212121208,3880.63636325,111.272727262,3852.81818143,284.363636335,4221.15151473,2831.27272699,4432.36363592,1730.90909074,4199.5151511,2851.87878759,4300.48484805,1392.96969683,4968.12121162,2996.12121182,4146.45454504,16.4848484832,4425.66666622,0.0,4195.39393897,4.1212121208,4841.39393891,0.0,4487.48484804,3836.84848446,42.0,42.0,?
2017-06-01 17:31:01.098285,4537.96969652,0.0,4220.63636321,4.1212121208,3864.66666628,111.272727262,3835.30302992,284.363636335,4220.63636321,2831.27272699,4434.42424198,1730.90909074,4205.18181776,2851.87878759,4309.24242381,1392.96969683,4961.42424193,2996.12121182,4126.36363595,16.4848484832,4428.75757531,0.0,4196.424242,0.0,4839.33333285,0.0,4472.5454541,3836.84848446,42.0,42.0,?
2017-06-01 17:31:01.105856,4539.51515106,0.0,4222.18181776,4.1212121208,3848.69696931,111.272727262,3820.8787875,284.363636335,4223.7272723,2831.27272699,4435.45454501,1730.90909074,4198.48484806,2851.87878759,4292.75757533,1392.96969683,4938.75757526,2996.12121182,4108.84848444,16.4848484832,4430.30302986,0.0,4195.90909049,0.0,4841.39393891,8.2424242416,4453.48484804,3836.84848446,42.0,42.0,?
2017-06-01 17:31:01.114262,4536.93939349,0.0,4224.24242382,4.1212121208,3844.57575719,111.272727262,3839.42424204,284.363636335,4237.1212117,2831.27272699,4436.99999956,1730.90909074,4190.75757534,2851.87878759,4288.63636321,1392.96969683,4922.27272678,2996.12121182,4099.57575717,20.606060604,4425.15151471,0.0,4194.36363594,0.0,4841.39393891,8.2424242416,4443.69696925,3836.84848446,42.0,42.0,?
2017-06-01 17:31:01.122157,4538.48484803,0.0,4224.75757534,4.1212121208,3847.66666628,111.272727262,3858.99999961,284.363636335,4240.21212079,2831.27272699,4430.81818138,1730.90909074,4178.39393898,2851.87878759,4287.60606018,1392.96969683,4905.27272678,2996.12121182,4094.42424201,20.606060604,4428.75757531,4.1212121208,4197.96969655,0.0,4844.484848,8.2424242416,4443.69696925,3836.84848446,42.0,42.0,?
2017-06-01 17:31:01.128786,4537.96969652,0.0,4226.30302988,4.1212121208,3853.84848446,111.272727262,3853.33333295,284.363636335,4234.03030261,2831.27272699,4419.48484804,1730.90909074,4157.27272686,2851.87878759,4273.69696927,1392.96969683,4906.30302981,2996.12121182,4095.45454505,20.606060604,4428.75757531,4.1212121208,4195.90909049,0.0,4840.36363588,8.2424242416,4451.42424198,3836.84848446,42.0,42.0,?
2017-06-01 17:31:01.137141,4533.33333288,0.0,4226.8181814,4.1212121208,3860.54545416,111.272727262,3850.24242386,284.363636335,4237.63636321,2831.27272699,4414.84848441,1730.90909074,4138.2121208,2851.87878759,4268.54545412,1392.96969683,4926.3939389,2996.12121182,4110.9090905,20.606060604,4428.2424238,4.1212121208,4195.90909049,0.0,4836.75757527,8.2424242416,4460.69696925,3836.84848446,42.0,42.0,?
2017-06-01 17:31:01.144398,4538.99999955,0.0,4225.27272685,4.1212121208,3862.60606022,111.272727262,3858.99999961,284.363636335,4240.21212079,2831.27272699,4417.42424198,1730.90909074,4127.9090905,2851.87878759,4277.81818139,1392.96969683,4936.6969692,2996.12121182,4134.60606019,20.606060604,4429.78787834,4.1212121208,4204.15151473,0.0,4841.90909042,8.2424242416,4460.18181774,3836.84848446,42.0,42.0,?
2017-06-01 17:31:01.153942,4540.54545409,0.0,4224.24242382,4.1212121208,3866.72727234,111.272727262,3862.60606022,284.363636335,4229.90909049,2831.27272699,4413.30302986,1730.90909074,4121.72727232,2851.87878759,4289.15151472,1392.96969683,4952.15151466,2996.12121182,4150.06060565,20.606060604,4426.69696925,4.1212121208,4205.69696928,0.0,4840.87878739,8.2424242416,4460.18181774,3836.84848446,42.0,42.0,?
2017-06-01 17:31:01.160388,4538.99999955,0.0,4226.30302988,4.1212121208,3876.51515113,111.272727262,3857.45454507,284.363636335,4214.45454503,2831.27272699,4405.06060562,1730.90909074,4116.06060565,2851.87878759,4286.57575715,1392.96969683,4974.81818132,2996.12121182,4152.12121171,20.606060604,4429.78787834,4.1212121208,4199.5151511,0.0,4838.81818133,8.2424242416,4470.48484804,3836.84848446,42.0,42.0,?
2017-06-01 17:31:01.170726,4539.51515106,0.0,4226.30302988,4.1212121208,3886.81818143,111.272727262,3858.4848481,284.363636335,4206.72727231,2831.27272699,4407.6363632,1730.90909074,4122.75757535,2851.87878759,4276.78787836,1392.96969683,4976.36363587,2996.12121182,4153.15151474,20.606060604,4428.2424238,4.1212121208,4199.5151511,0.0,4837.7878783,8.2424242416,4483.36363592,3836.84848446,42.0,42.0,?
2017-06-01 17:31:01.175354,4534.87878743,0.0,4222.18181776,4.1212121208,3893.51515113,111.272727262,3866.72727234,284.363636335,4204.15151473,2831.27272699,4416.90909047,1730.90909074,4156.75757534,2851.87878759,4283.99999957,1392.96969683,4972.24242375,2996.12121182,4160.87878746,20.606060604,4425.15151471,4.1212121208,4202.60606019,0.0,4839.84848436,8.2424242416,4493.1515147,3836.84848446,42.0,42.0,?
2017-06-01 17:31:01.183388,4537.96969652,0.0,4224.24242382,4.1212121208,3888.36363597,111.272727262,3859.51515113,284.363636335,4199.5151511,2831.27272699,4419.48484804,1730.90909074,4190.24242382,2851.87878759,4295.3333329,1392.96969683,4970.18181768,2996.12121182,4160.36363595,20.606060604,4427.21212077,4.1212121208,4199.5151511,0.0,4844.484848,8.2424242416,4489.5454541,3836.84848446,42.0,42.0,?
2017-06-01 17:31:01.191980,4537.96969652,0.0,4225.78787837,4.1212121208,3874.45454507,111.272727262,3845.09090871,284.363636335,4200.03030261,2831.27272699,4422.06060562,1730.90909074,4197.45454503,2851.87878759,4291.21212078,1392.96969683,4956.78787829,2996.12121182,4144.39393898,20.606060604,4426.18181774,4.1212121208,4194.36363594,0.0,4839.33333285,8.2424242416,4479.75757531,3836.84848446,42.0,42.0,?
2017-06-01 17:31:01.199983,4534.87878743,0.0,4224.75757534,4.1212121208,3866.21212083,111.272727262,3836.84848446,284.363636335,4210.33333291,2831.27272699,4429.27272683,1730.90909074,4193.84848443,2851.87878759,4288.63636321,1392.96969683,4945.96969648,2996.12121182,4125.84848444,20.606060604,4426.18181774,4.1212121208,4196.93939352,0.0,4840.87878739,8.2424242416,4473.06060561,3836.84848446,42.0,42.0,?
2017-06-01 17:31:01.207739,4538.99999955,0.0,4227.33333291,4.1212121208,3861.06060567,111.272727262,3832.21212083,284.363636335,4220.1212117,2831.27272699,4433.39393895,1730.90909074,4196.93939352,2851.87878759,4300.48484805,1392.96969683,4939.78787829,2996.12121182,4119.15151474,20.606060604,4425.15151471,4.1212121208,4196.93939352,0.0,4843.45454497,8.2424242416,4467.39393895,3836.84848446,42.0,42.0,?
2017-06-01 17:31:01.215220,4535.90909046,0.0,4225.27272685,4.1212121208,3852.81818143,111.272727262,3839.42424204,284.363636335,4230.424242,2831.27272699,4430.30302986,1730.90909074,4197.96969655,2851.87878759,4308.7272723,1392.96969683,4928.96969648,2996.12121182,4133.06060565,20.606060604,4426.69696925,4.1212121208,4195.90909049,0.0,4839.84848436,8.2424242416,4464.81818137,3836.84848446,42.0,42.0,?
2017-06-01 17:31:01.223513,4537.96969652,0.0,4222.69696927,4.1212121208,3846.12121174,111.272727262,3846.63636325,284.363636335,4239.69696927,2831.27272699,4424.12121168,1730.90909074,4186.1212117,2851.87878759,4300.99999957,1392.96969683,4934.12121163,2996.12121182,4142.33333292,20.606060604,4429.78787834,4.1212121208,4199.5151511,0.0,4841.39393891,8.2424242416,4461.72727228,3836.84848446,42.0,42.0,?
2017-06-01 17:31:01.231107,4540.03030258,0.0,4222.69696927,4.1212121208,3853.84848446,111.272727262,3845.60606022,284.363636335,4241.75757533,2831.27272699,4418.96969653,1730.90909074,4163.96969655,2851.87878759,4292.24242381,1392.96969683,4956.27272678,2996.12121182,4129.96969656,20.606060604,4427.21212077,4.1212121208,4200.03030261,0.0,4838.81818133,8.2424242416,4455.5454541,3836.84848446,42.0,42.0,?
2017-06-01 17:31:01.238948,4538.48484803,0.0,4223.7272723,4.1212121208,3875.99999961,111.272727262,3852.81818143,284.363636335,4238.66666624,2831.27272699,4416.39393895,1730.90909074,4134.60606019,2851.87878759,4286.57575715,1392.96969683,4956.27272678,2996.12121182,4115.54545413,20.606060604,4428.75757531,4.1212121208,4198.48484806,0.0,4840.36363588,8.2424242416,4459.66666622,3836.84848446,42.0,42.0,?
2017-06-01 17:31:01.246848,4540.54545409,0.0,4225.27272685,4.1212121208,3886.81818143,111.272727262,3853.84848446,284.363636335,4231.96969655,2831.27272699,4409.69696926,1730.90909074,4108.84848444,2851.87878759,4274.21212078,1392.96969683,4940.30302981,2996.12121182,4118.63636322,20.606060604,4428.75757531,4.1212121208,4200.54545413,0.0,4842.42424194,8.2424242416,4469.45454501,3836.84848446,42.0,42.0,?
2017-06-01 17:31:01.256813,4537.454545,0.0,4224.24242382,4.1212121208,3889.90909052,111.272727262,3855.90909052,284.363636335,4228.36363594,2831.27272699,4405.06060562,1730.90909074,4109.87878747,2851.87878759,4274.21212078,1392.96969683,4956.78787829,2996.12121182,4150.06060565,20.606060604,4427.21212077,4.1212121208,4202.09090867,0.0,4838.81818133,8.2424242416,4483.36363592,3836.84848446,42.0,42.0,?
2017-06-01 17:31:01.262089,4537.96969652,0.0,4224.24242382,4.1212121208,3898.15151476,111.272727262,3870.84848446,284.363636335,4228.36363594,2831.27272699,4409.69696926,1730.90909074,4127.9090905,2851.87878759,4288.12121169,1392.96969683,4989.75757526,2996.12121182,4178.39393898,20.606060604,4428.75757531,4.1212121208,4202.60606019,0.0,4842.93939346,8.2424242416,4499.33333288,3836.84848446,42.0,42.0,?
2017-06-01 17:31:01.270433,4539.51515106,0.0,4224.24242382,4.1212121208,3905.36363597,111.272727262,3868.27272689,284.363636335,4214.96969655,2831.27272699,4410.72727229,1730.90909074,4138.72727231,2851.87878759,4292.75757533,1392.96969683,4993.87878738,2996.12121182,4178.39393898,20.606060604,4423.09090865,4.1212121208,4202.60606019,0.0,4843.96969649,8.2424242416,4507.06060561,3836.84848446,42.0,42.0,?
2017-06-01 17:31:01.277799,4537.454545,0.0,4224.24242382,4.1212121208,3907.93939355,111.272727262,3854.87878749,284.363636335,4196.93939352,2831.27272699,4405.57575714,1730.90909074,4156.75757534,2851.87878759,4288.12121169,1392.96969683,4976.87878738,2996.12121182,4173.24242383,20.606060604,4424.63636319,4.1212121208,4204.15151473,0.0,4841.39393891,8.2424242416,4507.06060561,3836.84848446,42.0,42.0,?
2017-06-01 17:31:01.287621,4540.54545409,0.0,4226.8181814,4.1212121208,3901.24242385,111.272727262,3848.1818178,284.363636335,4189.72727231,2831.27272699,4406.60606017,1730.90909074,4179.93939352,2851.87878759,4281.424242,1392.96969683,4954.21212072,2996.12121182,4167.06060564,20.606060604,4429.27272683,4.1212121208,4202.60606019,0.0,4840.36363588,8.2424242416,4503.454545,3836.84848446,42.0,42.0,?
2017-06-01 17:31:01.294393,4537.96969652,0.0,4225.78787837,4.1212121208,3883.72727234,111.272727262,3832.21212083,284.363636335,4187.15151473,2831.27272699,4410.21212077,1730.90909074,4191.27272685,2851.87878759,4280.39393897,1392.96969683,4940.30302981,2996.12121182,4145.42424201,20.606060604,4428.75757531,4.1212121208,4200.03030261,0.0,4839.84848436,8.2424242416,4490.06060561,3836.84848446,42.0,42.0,?
2017-06-01 17:31:01.303293,4539.51515106,0.0,4225.27272685,4.1212121208,3868.27272689,111.272727262,3822.42424204,284.363636335,4189.72727231,2831.27272699,4414.84848441,1730.90909074,4197.45454503,2851.87878759,4295.84848442,1392.96969683,4953.18181769,2996.12121182,4123.27272686,20.606060604,4430.30302986,4.1212121208,4200.54545413,0.0,4842.93939346,8.2424242416,4474.60606016,3836.84848446,42.0,42.0,?
2017-06-01 17:31:01.309182,4541.57575712,0.0,4224.75757534,4.1212121208,3866.72727234,111.272727262,3834.27272689,284.363636335,4201.57575716,2831.27272699,4418.96969653,1730.90909074,4198.48484806,2851.87878759,4310.78787836,1392.96969683,4959.87878738,2996.12121182,4108.84848444,20.606060604,4425.15151471,4.1212121208,4196.93939352,0.0,4838.81818133,8.2424242416,4466.87878743,3836.84848446,42.0,42.0,?
2017-06-01 17:31:01.317797,4537.454545,0.0,4222.18181776,4.1212121208,3863.63636325,111.272727262,3841.4848481,284.363636335,4213.93939352,2831.27272699,4415.36363592,1730.90909074,4183.54545413,2851.87878759,4308.21212078,1392.96969683,4939.78787829,2996.12121182,4096.48484808,20.606060604,4426.69696925,4.1212121208,4194.87878746,0.0,4839.33333285,8.2424242416,4457.09090865,3836.84848446,42.0,42.0,?
2017-06-01 17:31:01.324522,4541.06060561,0.0,4225.78787837,4.1212121208,3856.42424204,111.272727262,3846.12121174,284.363636335,4215.48484806,2831.27272699,4405.06060562,1730.90909074,4158.8181814,2851.87878759,4296.36363593,1392.96969683,4938.24242375,2996.12121182,4102.66666626,20.606060604,4429.78787834,4.1212121208,4200.54545413,0.0,4844.99999952,8.2424242416,4447.30302986,3836.84848446,42.0,42.0,?
2017-06-01 17:31:01.332563,4540.54545409,0.0,4226.8181814,4.1212121208,3855.90909052,111.272727262,3856.42424204,284.363636335,4215.48484806,2831.27272699,4400.42424198,1730.90909074,4143.36363595,2851.87878759,4285.54545412,1392.96969683,4956.78787829,2996.12121182,4120.69696928,20.606060604,4426.69696925,4.1212121208,4202.60606019,0.0,4838.30302982,8.2424242416,4445.75757531,3836.84848446,42.0,42.0,?
2017-06-01 17:31:01.340785,4539.51515106,0.0,4224.24242382,4.1212121208,3857.96969658,111.272727262,3846.12121174,284.363636335,4220.1212117,2831.27272699,4406.60606017,1730.90909074,4133.06060565,2851.87878759,4279.87878745,1392.96969683,4951.63636314,2996.12121182,4113.48484807,20.606060604,4430.30302986,4.1212121208,4198.99999958,0.0,4837.7878783,8.2424242416,4452.96969652,3836.84848446,42.0,42.0,?
2017-06-01 17:31:01.348380,4538.48484803,0.0,4224.75757534,4.1212121208,3858.99999961,111.272727262,3829.63636325,284.363636335,4220.63636321,2831.27272699,4411.2424238,1730.90909074,4117.60606019,2851.87878759,4271.63636321,1392.96969683,4938.24242375,2996.12121182,4090.81818141,20.606060604,4428.2424238,4.1212121208,4196.424242,0.0,4839.84848436,8.2424242416,4453.48484804,3836.84848446,42.0,42.0,?
2017-06-01 17:31:01.356739,4534.36363591,0.0,4224.75757534,4.1212121208,3856.93939355,111.272727262,3842.51515113,284.363636335,4217.03030261,2831.27272699,4404.03030259,1730.90909074,4106.27272686,2851.87878759,4260.81818139,1392.96969683,4939.78787829,2996.12121182,4089.78787838,20.606060604,4428.75757531,4.1212121208,4198.99999958,0.0,4840.36363588,8.2424242416,4444.72727228,3836.84848446,42.0,42.0,?
2017-06-01 17:31:01.364486,4540.54545409,0.0,4224.24242382,4.1212121208,3854.87878749,111.272727262,3859.51515113,284.363636335,4210.33333291,2831.27272699,4397.84848441,1730.90909074,4112.96969656,2851.87878759,4264.424242,1392.96969683,4937.21212072,2996.12121182,4110.39393898,20.606060604,4432.36363592,4.1212121208,4200.03030261,0.0,4842.93939346,8.2424242416,4444.21212077,3836.84848446,42.0,42.0,?
2017-06-01 17:31:01.372372,4541.06060561,0.0,4220.1212117,4.1212121208,3859.51515113,111.272727262,3855.90909052,284.363636335,4200.03030261,2831.27272699,4400.42424198,1730.90909074,4134.09090868,2851.87878759,4277.30302988,1392.96969683,4938.75757526,2996.12121182,4124.30302989,20.606060604,4426.69696925,4.1212121208,4199.5151511,0.0,4839.33333285,8.2424242416,4452.96969652,3836.84848446,42.0,42.0,?
2017-06-01 17:31:01.379774,4536.93939349,0.0,4220.1212117,4.1212121208,3864.15151477,111.272727262,3846.12121174,284.363636335,4193.84848443,2831.27272699,4400.9393935,1730.90909074,4153.15151474,2851.87878759,4279.36363594,1392.96969683,4949.06060557,2996.12121182,4113.48484807,20.606060604,4427.72727228,4.1212121208,4198.99999958,0.0,4840.36363588,8.2424242416,4456.06060561,3836.84848446,42.0,42.0,?
2017-06-01 17:31:01.389376,4539.51515106,0.0,4225.27272685,4.1212121208,3859.51515113,111.272727262,3837.87878749,284.363636335,4194.87878746,2831.27272699,4401.96969653,1730.90909074,4160.87878746,2851.87878759,4275.24242381,1392.96969683,4947.51515102,2996.12121182,4095.96969656,20.606060604,4428.75757531,4.1212121208,4196.93939352,0.0,4840.87878739,8.2424242416,4450.90909046,3836.84848446,42.0,42.0,?
2017-06-01 17:31:01.394399,4537.96969652,0.0,4223.21212079,4.1212121208,3855.90909052,111.272727262,3831.1818178,284.363636335,4197.96969655,2831.27272699,4410.21212077,1730.90909074,4169.1212117,2851.87878759,4282.96969654,1392.96969683,4946.99999951,2996.12121182,4101.12121171,20.606060604,4427.21212077,4.1212121208,4198.48484806,0.0,4839.33333285,8.2424242416,4453.99999955,3836.84848446,42.0,42.0,?
2017-06-01 17:31:01.402469,4540.54545409,0.0,4223.7272723,4.1212121208,3856.42424204,111.272727262,3827.57575719,284.363636335,4204.66666625,2831.27272699,4419.48484804,1730.90909074,4176.33333292,2851.87878759,4294.81818139,1392.96969683,4947.51515102,2996.12121182,4112.96969656,20.606060604,4427.21212077,4.1212121208,4199.5151511,0.0,4842.42424194,8.2424242416,4456.06060561,3836.84848446,42.0,42.0,?
2017-06-01 17:31:01.411059,4539.51515106,0.0,4226.8181814,4.1212121208,3854.36363598,111.272727262,3824.99999962,284.363636335,4209.30302988,2831.27272699,4416.90909047,1730.90909074,4168.60606019,2851.87878759,4299.45454502,1392.96969683,4942.36363587,2996.12121182,4105.24242383,20.606060604,4425.15151471,4.1212121208,4196.93939352,0.0,4839.84848436,8.2424242416,4448.33333289,3836.84848446,42.0,42.0,?
2017-06-01 17:31:01.418529,4538.99999955,0.0,4223.21212079,4.1212121208,3856.93939355,111.272727262,3816.24242386,284.363636335,4207.24242382,2831.27272699,4404.54545411,1730.90909074,4155.72727231,2851.87878759,4295.84848442,1392.96969683,4942.36363587,2996.12121182,4088.75757535,20.606060604,4427.72727228,4.1212121208,4197.45454503,0.0,4842.42424194,8.2424242416,4441.63636319,3836.84848446,42.0,42.0,?
2017-06-01 17:31:01.428845,4544.66666621,0.0,4221.15151473,4.1212121208,3854.36363598,111.272727262,3815.21212083,284.363636335,4207.75757534,2831.27272699,4404.03030259,1730.90909074,4153.15151474,2851.87878759,4287.60606018,1392.96969683,4943.90909041,2996.12121182,4081.03030262,20.606060604,4427.72727228,4.1212121208,4197.45454503,0.0,4842.42424194,8.2424242416,4438.5454541,3836.84848446,42.0,42.0,?
2017-06-01 17:31:01.435138,4540.54545409,0.0,4223.21212079,4.1212121208,3841.4848481,111.272727262,3830.15151477,284.363636335,4214.45454503,2831.27272699,4416.90909047,1730.90909074,4157.78787837,2851.87878759,4282.45454503,1392.96969683,4942.36363587,2996.12121182,4084.12121171,20.606060604,4428.2424238,4.1212121208,4196.93939352,0.0,4837.27272679,8.2424242416,4436.99999956,3836.84848446,42.0,42.0,?
2017-06-01 17:31:01.441598,4538.99999955,0.0,4224.24242382,4.1212121208,3831.69696931,111.272727262,3832.72727234,284.363636335,4215.48484806,2831.27272699,4417.42424198,1730.90909074,4151.60606019,2851.87878759,4272.66666624,1392.96969683,4934.63636314,2996.12121182,4080.51515111,20.606060604,4431.33333289,4.1212121208,4198.48484806,0.0,4841.39393891,8.2424242416,4431.84848441,3836.84848446,42.0,42.0,?
2017-06-01 17:31:01.450682,4540.03030258,0.0,4222.18181776,4.1212121208,3832.72727234,111.272727262,3822.93939356,284.363636335,4204.66666625,2831.27272699,4403.51515107,1730.90909074,4131.5151511,2851.87878759,4252.06060564,1392.96969683,4917.12121163,2996.12121182,4059.39393899,20.606060604,4427.72727228,4.1212121208,4195.90909049,0.0,4839.84848436,8.2424242416,4427.72727228,3836.84848446,42.0,42.0,?
2017-06-01 17:31:01.460725,4537.96969652,0.0,4223.7272723,4.1212121208,3831.1818178,111.272727262,3823.96969659,284.363636335,4197.45454503,2831.27272699,4397.33333289,1730.90909074,4116.06060565,2851.87878759,4241.24242382,1392.96969683,4899.60606012,2996.12121182,4045.9999996,20.606060604,4428.2424238,4.1212121208,4194.36363594,0.0,4839.84848436,8.2424242416,4428.2424238,3836.84848446,42.0,42.0,?
2017-06-01 17:31:01.466194,4540.03030258,0.0,4226.30302988,4.1212121208,3823.96969659,111.272727262,3830.66666628,284.363636335,4196.424242,2831.27272699,4397.33333289,1730.90909074,4116.57575716,2851.87878759,4256.69696927,1392.96969683,4904.75757527,2996.12121182,4052.69696929,20.606060604,4426.69696925,4.1212121208,4194.87878746,0.0,4840.36363588,8.2424242416,4427.21212077,3836.84848446,42.0,42.0,?
2017-06-01 17:31:01.473469,4537.96969652,0.0,4220.1212117,4.1212121208,3825.51515113,111.272727262,3833.24242386,284.363636335,4192.30302988,2831.27272699,4393.21212077,1730.90909074,4132.54545413,2851.87878759,4275.75757533,1392.96969683,4927.42424193,2996.12121182,4072.78787838,20.606060604,4423.60606016,4.1212121208,4196.424242,0.0,4837.7878783,8.2424242416,4429.78787834,3836.84848446,42.0,42.0,?
2017-06-01 17:31:01.481234,4539.51515106,0.0,4221.15151473,4.1212121208,3837.36363598,111.272727262,3827.57575719,284.363636335,4189.72727231,2831.27272699,4391.15151471,1730.90909074,4141.30302989,2851.87878759,4273.18181775,1392.96969683,4930.51515102,2996.12121182,4088.75757535,20.606060604,4426.69696925,4.1212121208,4199.5151511,0.0,4841.90909042,8.2424242416,4439.06060562,3836.84848446,42.0,42.0,?
2017-06-01 17:31:01.488776,4541.06060561,0.0,4226.8181814,4.1212121208,3851.7878784,111.272727262,3824.4848481,284.363636335,4196.424242,2831.27272699,4396.30302986,1730.90909074,4135.63636322,2851.87878759,4269.57575715,1392.96969683,4924.33333284,2996.12121182,4090.30302989,20.606060604,4424.63636319,4.1212121208,4198.99999958,0.0,4838.81818133,8.2424242416,4452.45454501,3836.84848446,42.0,42.0,?
2017-06-01 17:31:01.498491,4537.96969652,0.0,4223.21212079,4.1212121208,3856.93939355,111.272727262,3832.72727234,284.363636335,4202.09090867,2831.27272699,4401.96969653,1730.90909074,4136.66666625,2851.87878759,4279.87878745,1392.96969683,4938.75757526,2996.12121182,4096.48484808,20.606060604,4427.72727228,4.1212121208,4196.93939352,0.0,4837.7878783,8.2424242416,4458.63636319,3836.84848446,42.0,42.0,?
2017-06-01 17:31:01.505095,4541.57575712,8.2424242416,4222.18181776,4.1212121208,3840.45454507,111.272727262,3833.75757537,284.363636335,4200.03030261,2831.27272699,4404.54545411,1730.90909074,4145.93939352,2851.87878759,4284.51515109,1392.96969683,4951.12121163,2996.12121182,4109.36363595,20.606060604,4430.81818138,4.1212121208,4197.96969655,0.0,4840.36363588,8.2424242416,4448.8484844,3836.84848446,42.0,42.0,?
2017-06-01 17:31:01.512341,4538.99999955,8.2424242416,4223.7272723,0.0,3824.99999962,111.272727262,3824.4848481,284.363636335,4204.66666625,2831.27272699,4405.57575714,1730.90909074,4155.72727231,2851.87878759,4280.90909048,1392.96969683,4947.51515102,2996.12121182,4101.63636323,20.606060604,4427.21212077,4.1212121208,4200.03030261,0.0,4836.75757527,8.2424242416,4435.96969653,3836.84848446,42.0,42.0,?
2017-06-01 17:31:01.521914,4537.454545,8.2424242416,4223.21212079,0.0,3819.84848447,111.272727262,3817.78787841,284.363636335,4210.84848443,2831.27272699,4411.75757532,1730.90909074,4158.8181814,2851.87878759,4278.33333291,1392.96969683,4938.75757526,2996.12121182,4075.87878747,20.606060604,4427.21212077,4.1212121208,4197.96969655,0.0,4841.39393891,8.2424242416,4424.63636319,3824.4848481,42.0,42.0,?
2017-06-01 17:31:01.528428,4538.99999955,8.2424242416,4221.66666624,0.0,3811.09090871,111.272727262,3815.21212083,284.363636335,4209.30302988,2831.27272699,4419.48484804,1730.90909074,4155.72727231,2851.87878759,4272.66666624,1392.96969683,4923.30302981,2996.12121182,4066.6060602,20.606060604,4426.69696925,4.1212121208,4195.39393897,0.0,4841.90909042,8.2424242416,4407.12121168,3824.4848481,42.0,42.0,?
2017-06-01 17:31:01.537009,4536.93939349,8.2424242416,4222.69696927,0.0,3811.60606022,111.272727262,3811.60606022,280.242424214,4205.69696928,2831.27272699,4415.87878744,1730.90909074,4150.57575716,2851.87878759,4263.39393897,1392.96969683,4908.36363587,2996.12121182,4068.15151474,20.606060604,4427.72727228,4.1212121208,4195.90909049,0.0,4837.7878783,8.2424242416,4397.84848441,3824.4848481,42.0,42.0,?
2017-06-01 17:31:01.544485,4541.57575712,8.2424242416,4226.8181814,0.0,3820.36363598,111.272727262,3811.09090871,280.242424214,4201.06060564,2823.03030275,4406.09090865,1730.90909074,4139.75757534,2851.87878759,4256.69696927,1392.96969683,4909.90909042,2996.12121182,4054.75757535,20.606060604,4428.2424238,4.1212121208,4196.93939352,0.0,4839.33333285,8.2424242416,4400.42424198,3824.4848481,42.0,42.0,?
2017-06-01 17:31:01.551942,4541.06060561,8.2424242416,4224.75757534,0.0,3823.45454507,111.272727262,3816.24242386,280.242424214,4197.45454503,2823.03030275,4400.42424198,1739.15151498,4129.96969656,2851.87878759,4259.27272685,1392.96969683,4915.06060557,2996.12121182,4057.33333293,20.606060604,4427.21212077,4.1212121208,4197.45454503,0.0,4840.36363588,8.2424242416,4405.57575714,3824.4848481,42.0,42.0,?
2017-06-01 17:31:01.560510,4538.48484803,8.2424242416,4222.69696927,0.0,3828.60606022,111.272727262,3815.21212083,280.242424214,4193.33333291,2823.03030275,4394.75757532,1739.15151498,4124.81818141,2864.24242396,4260.81818139,1392.96969683,4914.54545405,2996.12121182,4076.39393899,20.606060604,4430.30302986,4.1212121208,4198.48484806,0.0,4843.45454497,8.2424242416,4413.81818138,3824.4848481,42.0,42.0,?
2017-06-01 17:31:01.567009,4536.42424197,8.2424242416,4225.78787837,0.0,3836.84848446,111.272727262,3812.12121174,280.242424214,4190.75757534,2823.03030275,4385.99999956,1739.15151498,4122.75757535,2864.24242396,4254.1212117,1392.96969683,4917.63636314,2996.12121182,4081.03030262,20.606060604,4426.69696925,4.1212121208,4197.45454503,0.0,4840.87878739,8.2424242416,4420.51515107,3824.4848481,42.0,42.0,?
2017-06-01 17:31:01.574617,4532.81818136,8.2424242416,4227.33333291,0.0,3844.57575719,111.272727262,3830.66666628,280.242424214,4192.8181814,2823.03030275,4381.87878744,1739.15151498,4115.54545413,2864.24242396,4252.57575715,1392.96969683,4920.72727224,2991.9999997,4090.81818141,20.606060604,4426.18181774,4.1212121208,4197.96969655,0.0,4840.36363588,8.2424242416,4428.75757531,3824.4848481,42.0,42.0,?
2017-06-01 17:31:01.584639,4540.54545409,8.2424242416,4227.33333291,0.0,3850.24242386,111.272727262,3848.69696931,280.242424214,4192.30302988,2823.03030275,4382.90909047,1739.15151498,4109.87878747,2864.24242396,4262.87878745,1392.96969683,4924.84848436,2991.9999997,4112.45454504,16.4848484832,4427.72727228,4.1212121208,4200.54545413,0.0,4843.96969649,8.2424242416,4440.09090865,3824.4848481,42.0,42.0,?
2017-06-01 17:31:01.591143,4541.57575712,8.2424242416,4222.69696927,0.0,3847.66666628,111.272727262,3837.36363598,280.242424214,4188.18181776,2823.03030275,4382.39393896,1739.15151498,4120.69696928,2864.24242396,4273.69696927,1392.96969683,4936.6969692,2991.9999997,4108.33333292,16.4848484832,4423.60606016,12.3636363624,4198.48484806,0.0,4840.36363588,8.2424242416,4440.60606016,3824.4848481,42.0,42.0,?
2017-06-01 17:31:01.598374,4536.93939349,8.2424242416,4222.18181776,0.0,3830.15151477,111.272727262,3820.36363598,280.242424214,4191.78787837,2823.03030275,4381.87878744,1739.15151498,4130.99999959,2864.24242396,4271.12121169,1392.96969683,4935.66666617,2991.9999997,4083.09090868,16.4848484832,4427.72727228,12.3636363624,4194.36363594,8.2424242416,4840.36363588,8.2424242416,4422.06060562,3824.4848481,42.0,42.0,?
2017-06-01 17:31:01.608113,4538.48484803,8.2424242416,4226.30302988,0.0,3817.27272689,111.272727262,3819.33333295,280.242424214,4197.45454503,2823.03030275,4392.18181774,1739.15151498,4135.12121171,2864.24242396,4264.93939351,1392.96969683,4919.6969692,2991.9999997,4072.78787838,16.4848484832,4428.2424238,12.3636363624,4194.87878746,8.2424242416,4840.36363588,8.2424242416,4405.06060562,3824.4848481,42.0,42.0,?
2017-06-01 17:31:01.614379,4536.42424197,8.2424242416,4224.75757534,0.0,3821.39393901,111.272727262,3819.84848447,280.242424214,4197.45454503,2823.03030275,4402.99999956,1739.15151498,4146.45454504,2864.24242396,4267.51515109,1392.96969683,4913.51515102,2991.9999997,4077.42424202,28.8484848456,4426.69696925,12.3636363624,4198.48484806,8.2424242416,4839.33333285,8.2424242416,4411.75757532,3824.4848481,42.0,42.0,?
2017-06-01 17:31:01.623171,4539.51515106,8.2424242416,4223.7272723,0.0,3821.90909053,111.272727262,3809.54545416,280.242424214,4194.36363594,2823.03030275,4399.39393895,1739.15151498,4151.09090868,2864.24242396,4263.39393897,1392.96969683,4907.33333284,2991.9999997,4069.69696929,28.8484848456,4429.27272683,0.0,4198.99999958,8.2424242416,4842.93939346,8.2424242416,4419.48484804,3824.4848481,42.0,42.0,?
2017-06-01 17:31:01.630024,4541.57575712,8.2424242416,4224.24242382,0.0,3821.39393901,111.272727262,3806.96969659,280.242424214,4192.8181814,2823.03030275,4395.27272683,1739.15151498,4144.39393898,2864.24242396,4254.63636321,1392.96969683,4899.0909086,2991.9999997,4057.84848444,28.8484848456,4426.69696925,0.0,4195.39393897,0.0,4839.84848436,8.2424242416,4415.36363592,3824.4848481,42.0,42.0,?
2017-06-01 17:31:01.637386,4540.03030258,8.2424242416,4222.69696927,0.0,3825.51515113,111.272727262,3817.27272689,280.242424214,4195.90909049,2823.03030275,4398.36363592,1739.15151498,4146.96969656,2864.24242396,4261.84848442,1392.96969683,4907.33333284,2991.9999997,4067.12121171,28.8484848456,4428.2424238,0.0,4197.45454503,0.0,4841.39393891,8.2424242416,4411.75757532,3824.4848481,42.0,42.0,?
2017-06-01 17:31:01.647349,4539.51515106,8.2424242416,4220.63636321,0.0,3823.45454507,111.272727262,3819.33333295,280.242424214,4198.48484806,2823.03030275,4391.15151471,1739.15151498,4144.90909049,2864.24242396,4262.87878745,1392.96969683,4917.12121163,2991.9999997,4083.09090868,28.8484848456,4428.75757531,0.0,4199.5151511,0.0,4841.90909042,8.2424242416,4410.21212077,3824.4848481,42.0,42.0,?
2017-06-01 17:31:01.653084,4534.87878743,8.2424242416,4220.1212117,0.0,3826.03030265,111.272727262,3820.8787875,280.242424214,4195.90909049,2823.03030275,4376.21212077,1739.15151498,4120.69696928,2864.24242396,4250.51515109,1392.96969683,4918.15151466,2991.9999997,4090.30302989,28.8484848456,4427.72727228,0.0,4197.96969655,0.0,4838.81818133,8.2424242416,4415.36363592,3824.4848481,42.0,42.0,?
2017-06-01 17:31:01.661726,4538.99999955,8.2424242416,4224.24242382,0.0,3839.42424204,111.272727262,3818.30302992,280.242424214,4187.66666625,2823.03030275,4367.96969653,1739.15151498,4096.48484808,2864.24242396,4249.48484806,1392.96969683,4913.51515102,2991.9999997,4090.81818141,28.8484848456,4429.78787834,0.0,4196.93939352,0.0,4842.93939346,8.2424242416,4424.12121168,3824.4848481,42.0,42.0,?
2017-06-01 17:31:01.671752,4541.06060561,8.2424242416,4226.30302988,0.0,3846.63636325,111.272727262,3808.51515113,280.242424214,4179.93939352,2823.03030275,4361.78787835,1739.15151498,4096.99999959,2864.24242396,4255.66666624,1392.96969683,4909.90909042,2991.9999997,4090.81818141,28.8484848456,4426.18181774,0.0,4196.93939352,0.0,4839.84848436,8.2424242416,4429.78787834,3824.4848481,42.0,42.0,?
2017-06-01 17:31:01.676372,4535.90909046,8.2424242416,4223.7272723,0.0,3844.57575719,111.272727262,3820.36363598,280.242424214,4179.93939352,2823.03030275,4364.36363593,1739.15151498,4116.06060565,2864.24242396,4255.15151473,1392.96969683,4920.72727224,2991.9999997,4099.57575717,28.8484848456,4427.72727228,0.0,4198.99999958,0.0,4835.21212073,8.2424242416,4437.51515107,3824.4848481,42.0,42.0,?
2017-06-01 17:31:01.684431,4538.99999955,8.2424242416,4224.24242382,0.0,3841.4848481,111.272727262,3836.33333295,280.242424214,4186.1212117,2823.03030275,4379.81818138,1739.15151498,4135.12121171,2864.24242396,4261.84848442,1392.96969683,4935.66666617,2991.9999997,4106.78787838,28.8484848456,4428.75757531,0.0,4198.48484806,0.0,4836.24242376,8.2424242416,4438.5454541,3824.4848481,42.0,42.0,?
2017-06-01 17:31:01.693166,4537.96969652,8.2424242416,4223.7272723,0.0,3836.84848446,111.272727262,3825.51515113,280.242424214,4191.27272685,2823.03030275,4392.18181774,1739.15151498,4146.96969656,2864.24242396,4275.75757533,1392.96969683,4929.99999951,2991.9999997,4095.96969656,28.8484848456,4425.15151471,0.0,4196.424242,0.0,4839.84848436,8.2424242416,4424.12121168,3824.4848481,42.0,42.0,?
2017-06-01 17:31:01.701474,4537.454545,8.2424242416,4223.7272723,0.0,3819.33333295,111.272727262,3804.90909053,280.242424214,4191.78787837,2823.03030275,4396.81818138,1739.15151498,4154.69696928,2864.24242396,4271.12121169,1392.96969683,4910.42424193,2991.9999997,4073.3030299,28.8484848456,4426.69696925,0.0,4195.90909049,0.0,4845.51515103,8.2424242416,4403.51515107,3824.4848481,42.0,42.0,?
2017-06-01 17:31:01.708070,4537.96969652,8.2424242416,4225.78787837,0.0,3798.21212083,111.272727262,3797.69696932,280.242424214,4194.87878746,2823.03030275,4396.81818138,1739.15151498,4151.60606019,2864.24242396,4255.66666624,1392.96969683,4901.15151466,2991.9999997,4056.81818141,28.8484848456,4426.18181774,0.0,4193.84848443,0.0,4841.90909042,8.2424242416,4384.96969653,3824.4848481,42.0,42.0,?
2017-06-01 17:31:01.715376,4537.454545,8.2424242416,4224.24242382,0.0,3795.63636326,111.272727262,3795.63636326,280.242424214,4196.424242,2823.03030275,4394.2424238,1739.15151498,4139.75757534,2864.24242396,4255.66666624,1392.96969683,4898.57575709,2991.9999997,4051.15151475,28.8484848456,4429.27272683,0.0,4193.84848443,0.0,4841.90909042,8.2424242416,4378.78787835,3824.4848481,42.0,42.0,?
2017-06-01 17:31:01.723384,4540.03030258,8.2424242416,4223.21212079,0.0,3813.66666629,111.272727262,3800.78787841,280.242424214,4188.18181776,2823.03030275,4389.60606017,1739.15151498,4127.9090905,2864.24242396,4257.21212079,1392.96969683,4898.06060557,2991.9999997,4052.69696929,28.8484848456,4430.30302986,0.0,4196.424242,0.0,4844.484848,8.2424242416,4393.72727229,3824.4848481,42.0,42.0,?
2017-06-01 17:31:01.732209,4536.42424197,8.2424242416,4221.15151473,0.0,3836.33333295,111.272727262,3810.06060568,280.242424214,4182.5151511,2823.03030275,4380.84848441,1739.15151498,4118.12121171,2864.24242396,4247.424242,1392.96969683,4903.72727224,2991.9999997,4072.27272687,28.8484848456,4425.66666622,0.0,4196.424242,0.0,4837.7878783,8.2424242416,4422.06060562,3824.4848481,42.0,42.0,?
2017-06-01 17:31:01.738484,4537.454545,8.2424242416,4221.15151473,0.0,3848.69696931,111.272727262,3816.75757538,280.242424214,4183.03030261,2823.03030275,4367.96969653,1739.15151498,4112.45454504,2864.24242396,4247.424242,1392.96969683,4914.54545405,2991.9999997,4100.6060602,28.8484848456,4429.78787834,0.0,4201.06060564,0.0,4838.81818133,8.2424242416,4440.09090865,3824.4848481,42.0,42.0,?
2017-06-01 17:31:01.746339,4540.03030258,8.2424242416,4223.21212079,0.0,3850.24242386,111.272727262,3826.54545416,280.242424214,4176.84848443,2823.03030275,4360.24242381,1739.15151498,4111.42424201,2864.24242396,4257.7272723,1392.96969683,4935.66666617,2991.9999997,4119.15151474,28.8484848456,4429.27272683,0.0,4203.63636322,0.0,4840.36363588,8.2424242416,4441.63636319,3824.4848481,42.0,42.0,?
2017-06-01 17:31:01.756122,4535.90909046,8.2424242416,4222.18181776,0.0,3856.42424204,111.272727262,3830.15151477,280.242424214,4172.72727231,2823.03030275,4359.72727229,1739.15151498,4119.66666625,2864.24242396,4264.424242,1392.96969683,4961.93939344,2991.9999997,4132.54545413,28.8484848456,4428.2424238,0.0,4200.03030261,0.0,4839.84848436,8.2424242416,4447.81818137,3824.4848481,42.0,42.0,?
2017-06-01 17:31:01.763245,4540.54545409,8.2424242416,4225.27272685,0.0,3861.57575719,111.272727262,3822.93939356,280.242424214,4175.8181814,2823.03030275,4360.75757532,1739.15151498,4133.57575716,2864.24242396,4275.75757533,1392.96969683,4953.18181769,2991.9999997,4131.5151511,28.8484848456,4427.21212077,0.0,4197.96969655,0.0,4841.90909042,8.2424242416,4460.18181774,3824.4848481,42.0,42.0,?
2017-06-01 17:31:01.770457,4540.54545409,8.2424242416,4225.27272685,0.0,3847.66666628,111.272727262,3817.27272689,280.242424214,4174.27272686,2823.03030275,4363.84848441,1739.15151498,4139.75757534,2864.24242396,4279.36363594,1392.96969683,4919.6969692,2991.9999997,4112.45454504,28.8484848456,4425.15151471,0.0,4197.45454503,0.0,4838.81818133,8.2424242416,4452.96969652,3824.4848481,42.0,42.0,?
2017-06-01 17:31:01.780060,4535.39393894,8.2424242416,4222.69696927,0.0,3825.51515113,111.272727262,3815.21212083,280.242424214,4174.78787837,2823.03030275,4374.66666623,1739.15151498,4139.24242383,2864.24242396,4252.06060564,1392.96969683,4932.06060557,2991.9999997,4097.51515111,28.8484848456,4428.75757531,0.0,4198.99999958,0.0,4842.42424194,8.2424242416,4421.03030259,3824.4848481,42.0,42.0,?
2017-06-01 17:31:01.785384,4537.454545,8.2424242416,4224.24242382,0.0,3816.24242386,111.272727262,3811.09090871,280.242424214,4191.27272685,2823.03030275,4396.30302986,1739.15151498,4139.75757534,2864.24242396,4240.7272723,1392.96969683,4945.96969648,2991.9999997,4088.24242383,28.8484848456,4426.69696925,0.0,4198.99999958,0.0,4843.96969649,8.2424242416,4396.81818138,3824.4848481,42.0,42.0,?
2017-06-01 17:31:01.793398,4538.48484803,8.2424242416,4223.7272723,0.0,3817.78787841,111.272727262,3807.99999962,280.242424214,4201.06060564,2823.03030275,4408.66666623,1739.15151498,4134.60606019,2864.24242396,4262.36363594,1392.96969683,4903.72727224,2991.9999997,4069.18181777,28.8484848456,4426.18181774,0.0,4196.424242,0.0,4840.87878739,8.2424242416,4394.2424238,3824.4848481,42.0,42.0,?
2017-06-01 17:31:01.802164,4539.51515106,8.2424242416,4225.27272685,0.0,3815.72727235,111.272727262,3806.96969659,280.242424214,4183.03030261,2823.03030275,4392.69696926,1739.15151498,4118.63636322,2864.24242396,4246.39393897,1392.96969683,4877.96969648,2991.9999997,4049.6060602,28.8484848456,4430.30302986,0.0,4194.87878746,0.0,4844.99999952,8.2424242416,4394.2424238,3824.4848481,42.0,42.0,?
2017-06-01 17:31:01.809521,4536.42424197,8.2424242416,4224.75757534,0.0,3819.84848447,111.272727262,3809.54545416,280.242424214,4179.42424201,2823.03030275,4384.45454502,1739.15151498,4119.66666625,2864.24242396,4222.69696927,1392.96969683,4895.484848,2991.9999997,4056.3030299,28.8484848456,4428.2424238,0.0,4194.87878746,0.0,4841.90909042,8.2424242416,4397.33333289,3824.4848481,42.0,42.0,?
2017-06-01 17:31:01.818490,4538.48484803,8.2424242416,4222.18181776,0.0,3823.96969659,111.272727262,3815.21212083,280.242424214,4202.09090867,2823.03030275,4397.84848441,1739.15151498,4132.03030262,2864.24242396,4253.60606018,1392.96969683,4893.42424193,2991.9999997,4075.36363596,28.8484848456,4429.27272683,0.0,4196.424242,0.0,4839.33333285,8.2424242416,4402.48484804,3824.4848481,42.0,42.0,?
2017-06-01 17:31:01.827807,4541.57575712,8.2424242416,4223.21212079,0.0,3823.96969659,111.272727262,3815.21212083,280.242424214,4208.78787837,2823.03030275,4396.30302986,1739.15151498,4124.81818141,2864.24242396,4275.24242381,1392.96969683,4894.96969648,2991.9999997,4083.6060602,28.8484848456,4427.72727228,0.0,4197.45454503,0.0,4839.84848436,8.2424242416,4406.09090865,3824.4848481,42.0,42.0,?
2017-06-01 17:31:01.832851,4535.39393894,8.2424242416,4223.7272723,0.0,3839.93939356,111.272727262,3814.69696932,280.242424214,4194.36363594,2823.03030275,4381.36363593,1739.15151498,4116.06060565,2864.24242396,4255.15151473,1392.96969683,4925.36363587,2991.9999997,4089.27272686,28.8484848456,4427.72727228,0.0,4197.45454503,0.0,4839.84848436,8.2424242416,4421.03030259,3824.4848481,42.0,42.0,?
2017-06-01 17:31:01.840570,4538.99999955,8.2424242416,4223.21212079,0.0,3856.93939355,111.272727262,3818.81818144,280.242424214,4184.06060564,2823.03030275,4377.2424238,1739.15151498,4120.18181777,2864.24242396,4245.36363594,1392.96969683,4925.36363587,2991.9999997,4094.42424201,28.8484848456,4429.27272683,0.0,4195.39393897,0.0,4841.90909042,8.2424242416,4439.57575713,3824.4848481,42.0,42.0,?
2017-06-01 17:31:01.850128,4540.54545409,8.2424242416,4223.7272723,0.0,3848.69696931,111.272727262,3828.60606022,280.242424214,4180.96969655,2823.03030275,4377.75757532,1739.15151498,4126.36363595,2864.24242396,4253.09090867,1392.96969683,4918.66666617,2991.9999997,4098.03030262,28.8484848456,4424.12121168,0.0,4196.424242,0.0,4838.81818133,8.2424242416,4440.60606016,3824.4848481,42.0,42.0,?
2017-06-01 17:31:01.856620,4536.42424197,8.2424242416,4225.27272685,0.0,3840.45454507,111.272727262,3828.60606022,280.242424214,4174.27272686,2823.03030275,4376.21212077,1739.15151498,4136.66666625,2864.24242396,4259.78787836,1392.96969683,4939.78787829,2991.9999997,4100.6060602,28.8484848456,4427.72727228,0.0,4198.48484806,0.0,4840.36363588,8.2424242416,4432.87878744,3824.4848481,42.0,42.0,?
2017-06-01 17:31:01.864421,4541.06060561,8.2424242416,4225.27272685,0.0,3841.99999962,111.272727262,3811.09090871,280.242424214,4168.60606019,2823.03030275,4379.30302987,1739.15151498,4148.5151511,2864.24242396,4270.60606018,1392.96969683,4940.81818132,2991.9999997,4096.99999959,28.8484848456,4429.27272683,0.0,4195.90909049,0.0,4842.93939346,8.2424242416,4426.18181774,3824.4848481,42.0,42.0,?
2017-06-01 17:31:01.872277,4538.99999955,8.2424242416,4221.66666624,0.0,3841.4848481,111.272727262,3808.51515113,280.242424214,4167.06060564,2823.03030275,4384.96969653,1739.15151498,4152.12121171,2864.24242396,4276.78787836,1392.96969683,4935.15151466,2991.9999997,4093.39393898,28.8484848456,4425.66666622,0.0,4195.39393897,0.0,4841.90909042,8.2424242416,4424.63636319,3824.4848481,42.0,42.0,?
2017-06-01 17:31:01.879972,4538.48484803,8.2424242416,4221.66666624,0.0,3843.03030265,111.272727262,3821.90909053,280.242424214,4172.72727231,2823.03030275,4388.57575714,1739.15151498,4149.03030262,2864.24242396,4271.12121169,1392.96969683,4943.3939389,2991.9999997,4095.45454505,28.8484848456,4428.2424238,0.0,4198.48484806,0.0,4844.484848,8.2424242416,4427.72727228,3824.4848481,42.0,42.0,?
2017-06-01 17:31:01.887380,4540.03030258,8.2424242416,4223.21212079,0.0,3845.09090871,111.272727262,3823.45454507,280.242424214,4184.57575716,2823.03030275,4390.12121168,1739.15151498,4135.63636322,2864.24242396,4261.33333291,1392.96969683,4925.87878739,2991.9999997,4093.39393898,28.8484848456,4425.66666622,0.0,4196.424242,0.0,4839.84848436,8.2424242416,4422.06060562,3824.4848481,42.0,42.0,?
2017-06-01 17:31:01.897094,4536.93939349,8.2424242416,4224.24242382,0.0,3843.03030265,111.272727262,3818.81818144,280.242424214,4193.33333291,2823.03030275,4389.60606017,1739.15151498,4121.2121208,2864.24242396,4258.75757533,1392.96969683,4909.90909042,2991.9999997,4090.30302989,28.8484848456,4427.21212077,0.0,4195.90909049,0.0,4838.30302982,8.2424242416,4411.75757532,3824.4848481,42.0,42.0,?
2017-06-01 17:31:01.903631,4538.48484803,8.2424242416,4226.30302988,0.0,3841.99999962,111.272727262,3822.93939356,280.242424214,4196.424242,2823.03030275,4388.57575714,1739.15151498,4119.66666625,2864.24242396,4264.93939351,1392.96969683,4924.33333284,2991.9999997,4095.45454505,28.8484848456,4428.75757531,0.0,4197.96969655,0.0,4841.90909042,8.2424242416,4409.69696926,3824.4848481,42.0,42.0,?
2017-06-01 17:31:01.911135,4539.51515106,8.2424242416,4224.75757534,0.0,3833.75757537,111.272727262,3830.15151477,280.242424214,4197.96969655,2823.03030275,4389.09090865,1739.15151498,4123.27272686,2864.24242396,4265.96969654,1392.96969683,4931.03030254,2991.9999997,4099.57575717,28.8484848456,4425.66666622,0.0,4196.93939352,0.0,4840.36363588,8.2424242416,4401.96969653,3824.4848481,42.0,42.0,?
2017-06-01 17:31:01.918597,4541.57575712,8.2424242416,4225.78787837,0.0,3816.75757538,111.272727262,3822.93939356,280.242424214,4199.5151511,2823.03030275,4396.81818138,1739.15151498,4126.87878747,2864.24242396,4260.30302988,1392.96969683,4920.72727224,2991.9999997,4094.93939353,28.8484848456,4427.72727228,0.0,4198.48484806,0.0,4840.36363588,8.2424242416,4388.57575714,3824.4848481,42.0,42.0,?
2017-06-01 17:31:01.928517,4541.06060561,8.2424242416,4227.33333291,0.0,3823.96969659,111.272727262,3815.21212083,280.242424214,4204.15151473,2823.03030275,4403.51515107,1739.15151498,4138.72727231,2864.24242396,4265.45454503,1392.96969683,4919.6969692,2991.9999997,4095.45454505,28.8484848456,4428.2424238,0.0,4197.96969655,0.0,4839.84848436,8.2424242416,4398.87878744,3824.4848481,42.0,42.0,?
2017-06-01 17:31:01.934811,4536.42424197,8.2424242416,4223.7272723,0.0,3846.63636325,111.272727262,3821.90909053,280.242424214,4210.33333291,2823.03030275,4402.99999956,1739.15151498,4156.24242383,2864.24242396,4277.81818139,1392.96969683,4930.51515102,2991.9999997,4098.54545414,28.8484848456,4429.78787834,0.0,4195.39393897,0.0,4842.42424194,8.2424242416,4423.09090865,3824.4848481,42.0,42.0,?
2017-06-01 17:31:01.944517,4540.54545409,8.2424242416,4222.69696927,0.0,3844.06060568,111.272727262,3821.90909053,280.242424214,4204.66666625,2823.03030275,4405.06060562,1739.15151498,4160.87878746,2864.24242396,4275.24242381,1392.96969683,4937.72727223,2991.9999997,4101.12121171,28.8484848456,4428.2424238,0.0,4198.99999958,0.0,4843.96969649,8.2424242416,4430.30302986,3824.4848481,42.0,42.0,?
2017-06-01 17:31:01.951626,4538.48484803,8.2424242416,4222.18181776,0.0,3836.84848446,111.272727262,3819.33333295,280.242424214,4195.39393897,2823.03030275,4407.6363632,1739.15151498,4156.24242383,2864.24242396,4270.09090866,1392.96969683,4942.36363587,2991.9999997,4114.5151511,28.8484848456,4425.66666622,0.0,4203.1212117,0.0,4837.27272679,8.2424242416,4428.75757531,3824.4848481,42.0,42.0,?
2017-06-01 17:31:01.958329,4535.90909046,8.2424242416,4223.7272723,0.0,3846.63636325,111.272727262,3828.09090871,280.242424214,4196.93939352,2823.03030275,4401.45454501,1739.15151498,4146.45454504,2864.24242396,4276.78787836,1392.96969683,4938.75757526,2991.9999997,4122.75757535,28.8484848456,4430.30302986,0.0,4200.54545413,0.0,4839.84848436,8.2424242416,4428.75757531,3824.4848481,42.0,42.0,?
2017-06-01 17:31:01.966095,4537.454545,8.2424242416,4226.30302988,0.0,3852.30302992,111.272727262,3835.30302992,280.242424214,4194.87878746,2823.03030275,4390.12121168,1739.15151498,4130.48484807,2864.24242396,4275.24242381,1392.96969683,4928.45454496,2991.9999997,4102.66666626,28.8484848456,4427.72727228,0.0,4195.39393897,0.0,4840.36363588,8.2424242416,4421.5454541,3824.4848481,42.0,42.0,?
2017-06-01 17:31:01.973940,4535.90909046,8.2424242416,4225.27272685,0.0,3854.87878749,111.272727262,3835.81818143,280.242424214,4184.57575716,2823.03030275,4383.9393935,1739.15151498,4122.75757535,2864.24242396,4268.0303026,1392.96969683,4927.42424193,2991.9999997,4093.39393898,28.8484848456,4427.72727228,0.0,4196.93939352,0.0,4838.81818133,8.2424242416,4425.66666622,3824.4848481,42.0,42.0,?
2017-06-01 17:31:01.981469,4538.48484803,8.2424242416,4223.7272723,0.0,3864.66666628,111.272727262,3830.66666628,280.242424214,4179.42424201,2823.03030275,4383.42424199,1739.15151498,4127.39393898,2864.24242396,4274.7272723,1392.96969683,4933.0909086,2991.9999997,4116.06060565,28.8484848456,4431.84848441,0.0,4198.99999958,0.0,4842.42424194,8.2424242416,4445.75757531,3824.4848481,42.0,42.0,?
2017-06-01 17:31:01.990355,4536.42424197,8.2424242416,4223.7272723,0.0,3871.87878749,111.272727262,3828.09090871,280.242424214,4186.63636322,2823.03030275,4383.9393935,1739.15151498,4139.75757534,2864.24242396,4291.21212078,1392.96969683,4948.03030254,2991.9999997,4131.5151511,28.8484848456,4427.72727228,0.0,4197.45454503,0.0,4839.33333285,8.2424242416,4454.51515107,3824.4848481,42.0,42.0,?
2017-06-01 17:31:01.998062,4537.454545,8.2424242416,4223.7272723,0.0,3858.99999961,111.272727262,3837.36363598,280.242424214,4201.57575716,2823.03030275,4386.51515108,1739.15151498,4147.48484807,2864.24242396,4295.84848442,1392.96969683,4957.81818132,2991.9999997,4116.06060565,28.8484848456,4428.2424238,0.0,4197.45454503,0.0,4838.81818133,8.2424242416,4434.9393935,3824.4848481,42.0,42.0,?
2017-06-01 17:31:02.004899,4542.60606015,8.2424242416,4223.7272723,0.0,3833.24242386,111.272727262,3842.51515113,280.242424214,4210.84848443,2823.03030275,4400.42424198,1739.15151498,4152.12121171,2864.24242396,4283.99999957,1392.96969683,4935.15151466,2991.9999997,4092.36363595,28.8484848456,4427.72727228,0.0,4195.90909049,0.0,4839.33333285,8.2424242416,4404.54545411,3824.4848481,42.0,42.0,?
2017-06-01 17:31:02.012479,4539.51515106,12.3636363624,4220.1212117,0.0,3824.4848481,111.272727262,3834.27272689,280.242424214,4213.93939352,2823.03030275,4417.42424198,1739.15151498,4163.96969655,2864.24242396,4275.24242381,1392.96969683,4905.27272678,2991.9999997,4081.54545414,28.8484848456,4427.72727228,0.0,4194.36363594,0.0,4839.33333285,8.2424242416,4395.78787835,3824.4848481,42.0,42.0,?
2017-06-01 17:31:02.021444,4541.06060561,12.3636363624,4223.21212079,12.3636363624,3833.75757537,111.272727262,3828.60606022,280.242424214,4217.54545412,2823.03030275,4419.48484804,1739.15151498,4170.15151473,2864.24242396,4277.30302988,1392.96969683,4910.93939345,2991.9999997,4083.6060602,28.8484848456,4429.27272683,0.0,4196.93939352,0.0,4842.93939346,8.2424242416,4405.06060562,3824.4848481,42.0,42.0,?
2017-06-01 17:31:02.029073,4540.03030258,12.3636363624,4225.78787837,12.3636363624,3843.03030265,111.272727262,3833.24242386,280.242424214,4223.21212079,2823.03030275,4410.21212077,1739.15151498,4160.36363595,2864.24242396,4280.39393897,1392.96969683,4936.18181769,2991.9999997,4094.42424201,28.8484848456,4424.63636319,0.0,4198.99999958,0.0,4839.33333285,8.2424242416,4416.39393895,3828.60606022,42.0,42.0,?
2017-06-01 17:31:02.037121,4538.48484803,12.3636363624,4223.21212079,12.3636363624,3852.81818143,98.9090908992,3836.84848446,280.242424214,4224.75757534,2823.03030275,4405.57575714,1739.15151498,4147.99999959,2864.24242396,4278.84848442,1392.96969683,4941.33333284,2991.9999997,4105.24242383,28.8484848456,4427.21212077,0.0,4197.45454503,0.0,4840.87878739,8.2424242416,4430.30302986,3828.60606022,42.0,42.0,?
2017-06-01 17:31:02.044168,4540.54545409,12.3636363624,4223.21212079,12.3636363624,3858.4848481,98.9090908992,3834.7878784,292.606060577,4215.99999958,2823.03030275,4402.99999956,1739.15151498,4140.27272686,2864.24242396,4279.36363594,1392.96969683,4937.21212072,2991.9999997,4109.36363595,28.8484848456,4428.75757531,0.0,4196.424242,0.0,4843.45454497,8.2424242416,4440.09090865,3828.60606022,42.0,42.0,?
2017-06-01 17:31:02.051471,4535.39393894,12.3636363624,4223.7272723,12.3636363624,3863.63636325,98.9090908992,3832.72727234,292.606060577,4206.72727231,2831.27272699,4390.6363632,1739.15151498,4137.18181777,2864.24242396,4290.18181775,1392.96969683,4948.03030254,2991.9999997,4122.75757535,28.8484848456,4426.69696925,0.0,4198.48484806,0.0,4840.36363588,8.2424242416,4448.33333289,3828.60606022,42.0,42.0,?
2017-06-01 17:31:02.060203,4538.48484803,12.3636363624,4225.27272685,12.3636363624,3872.90909052,98.9090908992,3834.27272689,292.606060577,4198.99999958,2831.27272699,4375.69696926,1739.15151498,4140.78787837,2864.24242396,4299.45454502,1392.96969683,4957.81818132,2991.9999997,4134.09090868,28.8484848456,4427.72727228,0.0,4200.54545413,0.0,4843.45454497,8.2424242416,4456.06060561,3828.60606022,42.0,42.0,?
2017-06-01 17:31:02.068001,4543.12121167,12.3636363624,4224.75757534,12.3636363624,3883.21212082,98.9090908992,3844.57575719,292.606060577,4188.18181776,2831.27272699,4369.51515108,1739.15151498,4141.8181814,2860.12121184,4293.78787836,1392.96969683,4963.48484799,2991.9999997,4133.57575716,28.8484848456,4426.18181774,0.0,4197.45454503,0.0,4841.90909042,8.2424242416,4464.81818137,3828.60606022,42.0,42.0,?
2017-06-01 17:31:02.077253,4539.51515106,12.3636363624,4223.7272723,12.3636363624,3888.36363597,98.9090908992,3856.42424204,292.606060577,4176.84848443,2831.27272699,4366.9393935,1739.15151498,4143.87878746,2860.12121184,4287.09090866,1388.84848471,4959.36363587,2991.9999997,4140.78787837,28.8484848456,4429.27272683,0.0,4198.99999958,0.0,4840.87878739,8.2424242416,4475.12121167,3828.60606022,42.0,42.0,?
2017-06-01 17:31:02.082578,4539.51515106,12.3636363624,4226.30302988,12.3636363624,3885.7878784,98.9090908992,3851.7878784,292.606060577,4176.33333292,2831.27272699,4373.12121168,1739.15151498,4166.03030261,2860.12121184,4294.81818139,1388.84848471,4944.93939344,2987.87878758,4149.03030262,28.8484848456,4428.75757531,0.0,4205.69696928,0.0,4840.87878739,8.2424242416,4477.69696925,3828.60606022,42.0,42.0,?
2017-06-01 17:31:02.091086,4540.03030258,12.3636363624,4221.66666624,12.3636363624,3872.90909052,98.9090908992,3841.4848481,292.606060577,4186.1212117,2831.27272699,4391.66666623,1739.15151498,4187.66666625,2860.12121184,4307.69696927,1388.84848471,4953.18181769,2987.87878758,4136.66666625,20.606060604,4425.66666622,0.0,4201.57575716,0.0,4837.7878783,8.2424242416,4463.78787834,3828.60606022,42.0,42.0,?
2017-06-01 17:31:02.101133,4541.57575712,12.3636363624,4221.15151473,12.3636363624,3848.69696931,98.9090908992,3838.90909053,292.606060577,4193.84848443,2831.27272699,4408.15151471,1739.15151498,4179.93939352,2860.12121184,4298.42424199,1388.84848471,4955.24242375,2987.87878758,4111.93939353,20.606060604,4427.72727228,4.1212121208,4193.33333291,0.0,4839.84848436,8.2424242416,4435.96969653,3828.60606022,42.0,42.0,?
2017-06-01 17:31:02.106803,4538.48484803,12.3636363624,4225.78787837,12.3636363624,3821.90909053,98.9090908992,3826.54545416,292.606060577,4194.87878746,2831.27272699,4413.30302986,1739.15151498,4161.39393898,2860.12121184,4273.18181775,1388.84848471,4918.15151466,2987.87878758,4090.81818141,20.606060604,4426.18181774,4.1212121208,4192.30302988,12.3636363624,4839.33333285,8.2424242416,4405.06060562,3828.60606022,42.0,42.0,?
2017-06-01 17:31:02.114487,4536.93939349,12.3636363624,4224.24242382,12.3636363624,3801.30302992,98.9090908992,3806.96969659,292.606060577,4201.57575716,2831.27272699,4415.87878744,1739.15151498,4160.87878746,2860.12121184,4262.36363594,1388.84848471,4901.15151466,2987.87878758,4075.36363596,20.606060604,4429.27272683,4.1212121208,4197.45454503,12.3636363624,4842.42424194,0.0,4382.39393896,3828.60606022,42.0,42.0,?
2017-06-01 17:31:02.124242,4541.57575712,12.3636363624,4223.21212079,12.3636363624,3796.66666629,98.9090908992,3808.51515113,292.606060577,4214.45454503,2831.27272699,4419.99999956,1739.15151498,4162.93939352,2860.12121184,4274.7272723,1388.84848471,4917.63636314,2987.87878758,4075.36363596,16.4848484832,4431.84848441,4.1212121208,4197.45454503,12.3636363624,4842.42424194,0.0,4379.30302987,3828.60606022,42.0,42.0,?
2017-06-01 17:31:02.130519,4536.42424197,12.3636363624,4223.21212079,12.3636363624,3817.78787841,98.9090908992,3827.57575719,292.606060577,4226.8181814,2831.27272699,4419.48484804,1739.15151498,4151.09090868,2860.12121184,4290.18181775,1388.84848471,4928.45454496,2987.87878758,4096.48484808,16.4848484832,4428.2424238,12.3636363624,4193.33333291,12.3636363624,4837.27272679,0.0,4396.30302986,3828.60606022,42.0,42.0,?
2017-06-01 17:31:02.139383,4534.36363591,12.3636363624,4223.7272723,12.3636363624,3845.60606022,98.9090908992,3834.7878784,292.606060577,4229.39393897,2831.27272699,4409.18181774,1739.15151498,4134.60606019,2860.12121184,4285.0303026,1388.84848471,4937.72727223,2987.87878758,4115.03030262,16.4848484832,4429.27272683,12.3636363624,4197.96969655,12.3636363624,4843.96969649,0.0,4421.03030259,3828.60606022,42.0,42.0,?
2017-06-01 17:31:02.146001,4537.454545,12.3636363624,4224.24242382,12.3636363624,3856.42424204,98.9090908992,3834.7878784,292.606060577,4217.54545412,2831.27272699,4394.2424238,1739.15151498,4120.69696928,2860.12121184,4274.21212078,1388.84848471,4943.90909041,2987.87878758,4124.81818141,16.4848484832,4427.21212077,12.3636363624,4203.63636322,12.3636363624,4842.93939346,0.0,4443.18181774,3828.60606022,42.0,42.0,?
2017-06-01 17:31:02.155200,4536.93939349,12.3636363624,4222.69696927,12.3636363624,3859.51515113,98.9090908992,3846.12121174,292.606060577,4202.60606019,2831.27272699,4382.39393896,1739.15151498,4117.60606019,2860.12121184,4286.06060563,1388.84848471,4954.21212072,2987.87878758,4139.75757534,16.4848484832,4428.75757531,12.3636363624,4201.57575716,12.3636363624,4838.81818133,0.0,4462.2424238,3828.60606022,42.0,42.0,?
2017-06-01 17:31:02.167003,4542.60606015,12.3636363624,4226.30302988,12.3636363624,3868.7878784,98.9090908992,3860.03030264,292.606060577,4191.27272685,2831.27272699,4373.12121168,1739.15151498,4128.93939353,2860.12121184,4297.39393896,1388.84848471,4989.75757526,2987.87878758,4152.12121171,16.4848484832,4430.30302986,12.3636363624,4198.99999958,12.3636363624,4842.42424194,0.0,4470.99999955,3828.60606022,42.0,42.0,?
2017-06-01 17:31:02.172585,4538.99999955,12.3636363624,4223.7272723,12.3636363624,3876.51515113,98.9090908992,3856.93939355,292.606060577,4182.5151511,2831.27272699,4369.51515108,1739.15151498,4151.09090868,2860.12121184,4295.3333329,1388.84848471,5007.27272677,2987.87878758,4152.63636322,16.4848484832,4428.2424238,12.3636363624,4201.57575716,12.3636363624,4840.36363588,0.0,4467.39393895,3828.60606022,42.0,42.0,?
2017-06-01 17:31:02.176490,4535.90909046,12.3636363624,4220.1212117,12.3636363624,3879.60606022,98.9090908992,3839.93939356,292.606060577,4182.5151511,2831.27272699,4377.2424238,1739.15151498,4177.36363595,2860.12121184,4302.0303026,1388.84848471,4984.09090859,2987.87878758,4150.06060565,16.4848484832,4430.81818138,12.3636363624,4200.54545413,12.3636363624,4841.90909042,0.0,4462.75757531,3828.60606022,42.0,42.0,?
2017-06-01 17:31:02.184508,4541.57575712,12.3636363624,4222.69696927,12.3636363624,3888.87878749,98.9090908992,3838.90909053,292.606060577,4185.09090867,2831.27272699,4389.09090865,1739.15151498,4199.5151511,2860.12121184,4313.87878745,1388.84848471,4968.12121162,2987.87878758,4144.90909049,16.4848484832,4426.69696925,12.3636363624,4195.90909049,12.3636363624,4840.87878739,0.0,4457.09090865,3828.60606022,42.0,42.0,?
2017-06-01 17:31:02.194467,4538.99999955,12.3636363624,4224.24242382,12.3636363624,3892.99999961,98.9090908992,3859.51515113,292.606060577,4183.03030261,2831.27272699,4397.84848441,1739.15151498,4210.33333291,2860.12121184,4308.7272723,1388.84848471,4963.48484799,2987.87878758,4135.12121171,16.4848484832,4425.66666622,12.3636363624,4197.45454503,12.3636363624,4837.27272679,0.0,4448.8484844,3828.60606022,42.0,42.0,?
2017-06-01 17:31:02.201342,4540.54545409,12.3636363624,4223.21212079,12.3636363624,3882.18181779,98.9090908992,3862.60606022,292.606060577,4187.15151473,2831.27272699,4404.54545411,1739.15151498,4205.69696928,2860.12121184,4297.39393896,1388.84848471,4944.93939344,2987.87878758,4121.2121208,16.4848484832,4429.78787834,12.3636363624,4200.03030261,12.3636363624,4840.36363588,0.0,4438.03030259,3828.60606022,42.0,42.0,?
2017-06-01 17:31:02.209449,4541.57575712,12.3636363624,4221.66666624,12.3636363624,3878.06060567,98.9090908992,3847.15151477,292.606060577,4202.60606019,2831.27272699,4407.12121168,1739.15151498,4199.5151511,2860.12121184,4303.57575715,1388.84848471,4939.78787829,2987.87878758,4106.78787838,16.4848484832,4426.69696925,12.3636363624,4196.424242,12.3636363624,4838.81818133,0.0,4433.39393895,3828.60606022,42.0,42.0,?
2017-06-01 17:31:02.215398,4538.99999955,12.3636363624,4225.27272685,12.3636363624,3878.57575719,98.9090908992,3838.39393901,292.606060577,4212.39393897,2831.27272699,4406.09090865,1739.15151498,4189.21212079,2860.12121184,4314.90909048,1388.84848471,4946.99999951,2987.87878758,4100.09090868,16.4848484832,4428.2424238,12.3636363624,4199.5151511,12.3636363624,4838.30302982,0.0,4434.9393935,3828.60606022,42.0,42.0,?
2017-06-01 17:31:02.225662,4538.48484803,12.3636363624,4227.84848443,12.3636363624,3861.57575719,98.9090908992,3843.54545416,292.606060577,4211.87878746,2831.27272699,4399.90909047,1739.15151498,4166.03030261,2860.12121184,4312.3333329,1388.84848471,4952.15151466,2987.87878758,4103.18181777,16.4848484832,4429.27272683,12.3636363624,4201.57575716,12.3636363624,4838.81818133,0.0,4434.9393935,3828.60606022,42.0,42.0,?
2017-06-01 17:31:02.232384,4537.454545,12.3636363624,4224.75757534,12.3636363624,3846.63636325,98.9090908992,3851.7878784,292.606060577,4207.75757534,2831.27272699,4387.03030259,1739.15151498,4137.69696928,2860.12121184,4298.93939351,1388.84848471,4962.45454496,2987.87878758,4112.96969656,16.4848484832,4429.27272683,12.3636363624,4198.99999958,12.3636363624,4840.36363588,0.0,4435.45454501,3828.60606022,42.0,42.0,?
2017-06-01 17:31:02.240996,4540.54545409,12.3636363624,4223.7272723,12.3636363624,3845.09090871,98.9090908992,3849.72727234,292.606060577,4198.48484806,2831.27272699,4372.09090865,1739.15151498,4110.39393898,2860.12121184,4282.45454503,1388.84848471,4955.24242375,2987.87878758,4118.63636322,16.4848484832,4430.30302986,12.3636363624,4202.09090867,12.3636363624,4842.93939346,0.0,4438.03030259,3828.60606022,42.0,42.0,?
2017-06-01 17:31:02.248419,4537.96969652,12.3636363624,4221.66666624,12.3636363624,3850.75757537,98.9090908992,3849.72727234,292.606060577,4194.36363594,2831.27272699,4368.48484805,1739.15151498,4096.48484808,2860.12121184,4271.63636321,1388.84848471,4934.63636314,2987.87878758,4124.30302989,16.4848484832,4426.69696925,12.3636363624,4202.09090867,12.3636363624,4838.81818133,0.0,4446.27272683,3828.60606022,42.0,42.0,?
2017-06-01 17:31:02.256030,4537.96969652,12.3636363624,4222.69696927,12.3636363624,3861.06060567,98.9090908992,3860.54545416,292.606060577,4190.24242382,2831.27272699,4372.09090865,1739.15151498,4108.33333292,2860.12121184,4272.15151472,1388.84848471,4948.03030254,2987.87878758,4134.60606019,16.4848484832,4429.27272683,12.3636363624,4197.45454503,12.3636363624,4840.87878739,0.0,4459.15151471,3828.60606022,42.0,42.0,?
2017-06-01 17:31:02.263513,4542.09090864,12.3636363624,4225.27272685,12.3636363624,3863.12121173,98.9090908992,3862.0909087,292.606060577,4180.45454504,2831.27272699,4372.60606017,1739.15151498,4123.78787838,2860.12121184,4273.69696927,1388.84848471,4974.30302981,2987.87878758,4138.2121208,16.4848484832,4429.27272683,12.3636363624,4200.03030261,12.3636363624,4841.90909042,0.0,4459.15151471,3828.60606022,42.0,42.0,?
2017-06-01 17:31:02.271057,4535.39393894,12.3636363624,4222.69696927,12.3636363624,3856.93939355,98.9090908992,3852.81818143,292.606060577,4180.96969655,2831.27272699,4374.66666623,1739.15151498,4137.18181777,2860.12121184,4271.63636321,1388.84848471,4969.15151465,2987.87878758,4131.5151511,16.4848484832,4427.72727228,12.3636363624,4203.63636322,12.3636363624,4837.7878783,0.0,4442.15151471,3828.60606022,42.0,42.0,?
2017-06-01 17:31:02.278693,4537.454545,12.3636363624,4223.7272723,12.3636363624,3853.33333295,98.9090908992,3849.72727234,292.606060577,4189.72727231,2831.27272699,4387.03030259,1739.15151498,4165.5151511,2860.12121184,4279.87878745,1388.84848471,4951.63636314,2987.87878758,4112.45454504,16.4848484832,4428.75757531,12.3636363624,4197.45454503,12.3636363624,4841.90909042,0.0,4426.69696925,3828.60606022,42.0,42.0,?
2017-06-01 17:31:02.289276,4541.06060561,12.3636363624,4225.78787837,12.3636363624,3850.75757537,98.9090908992,3844.57575719,292.606060577,4204.15151473,2831.27272699,4405.57575714,1739.15151498,4193.84848443,2860.12121184,4303.06060563,1388.84848471,4948.54545405,2987.87878758,4093.39393898,16.4848484832,4425.15151471,12.3636363624,4192.30302988,12.3636363624,4840.87878739,0.0,4419.48484804,3828.60606022,42.0,42.0,?
2017-06-01 17:31:02.294785,4537.454545,12.3636363624,4223.21212079,12.3636363624,3841.4848481,98.9090908992,3836.33333295,292.606060577,4226.30302988,2831.27272699,4424.12121168,1739.15151498,4201.57575716,2860.12121184,4319.54545411,1388.84848471,4945.96969648,2987.87878758,4083.09090868,16.4848484832,4428.2424238,12.3636363624,4196.93939352,12.3636363624,4841.90909042,0.0,4413.81818138,3828.60606022,42.0,42.0,?
2017-06-01 17:31:02.303025,4540.54545409,12.3636363624,4224.24242382,12.3636363624,3834.7878784,98.9090908992,3839.42424204,292.606060577,4244.33333291,2831.27272699,4440.60606016,1739.15151498,4197.96969655,2860.12121184,4314.39393896,1388.84848471,4937.72727223,2987.87878758,4075.87878747,16.4848484832,4429.27272683,12.3636363624,4197.45454503,12.3636363624,4842.93939346,0.0,4413.81818138,3828.60606022,42.0,42.0,?
2017-06-01 17:31:02.310467,4537.454545,12.3636363624,4223.7272723,12.3636363624,3847.66666628,98.9090908992,3848.1818178,292.606060577,4251.54545412,2831.27272699,4448.33333289,1739.15151498,4204.66666625,2860.12121184,4318.51515108,1388.84848471,4951.63636314,2987.87878758,4083.6060602,16.4848484832,4427.72727228,12.3636363624,4195.90909049,12.3636363624,4837.7878783,0.0,4430.81818138,3828.60606022,42.0,42.0,?
2017-06-01 17:31:02.318542,4537.454545,12.3636363624,4224.24242382,12.3636363624,3867.24242386,98.9090908992,3844.57575719,292.606060577,4251.03030261,2831.27272699,4442.66666622,1739.15151498,4214.96969655,2860.12121184,4338.60606017,1388.84848471,4973.27272678,2987.87878758,4106.78787838,16.4848484832,4431.33333289,12.3636363624,4197.96969655,12.3636363624,4840.36363588,0.0,4455.5454541,3828.60606022,42.0,42.0,?
2017-06-01 17:31:02.326153,4541.57575712,12.3636363624,4226.8181814,12.3636363624,3873.93939355,98.9090908992,3836.84848446,292.606060577,4246.39393897,2831.27272699,4431.84848441,1739.15151498,4204.15151473,2860.12121184,4339.6363632,1388.84848471,4972.24242375,2987.87878758,4117.60606019,16.4848484832,4427.72727228,12.3636363624,4196.93939352,12.3636363624,4838.81818133,0.0,4462.2424238,3828.60606022,42.0,42.0,?
2017-06-01 17:31:02.335345,4538.99999955,12.3636363624,4223.7272723,12.3636363624,3880.12121173,98.9090908992,3841.4848481,292.606060577,4238.66666624,2831.27272699,4419.48484804,1739.15151498,4179.42424201,2860.12121184,4322.6363632,1388.84848471,4970.18181768,2987.87878758,4118.63636322,16.4848484832,4426.18181774,12.3636363624,4196.424242,12.3636363624,4835.72727224,0.0,4461.72727228,3828.60606022,42.0,42.0,?
2017-06-01 17:31:02.342123,4540.03030258,12.3636363624,4220.1212117,12.3636363624,3890.42424204,98.9090908992,3847.66666628,292.606060577,4226.30302988,2831.27272699,4407.12121168,1739.15151498,4160.87878746,2860.12121184,4311.30302987,1388.84848471,4987.18181768,2987.87878758,4119.66666625,16.4848484832,4429.27272683,12.3636363624,4201.06060564,12.3636363624,4839.84848436,0.0,4468.93939349,3828.60606022,42.0,42.0,?
2017-06-01 17:31:02.348447,4540.54545409,12.3636363624,4222.18181776,12.3636363624,3895.06060567,98.9090908992,3849.21212083,292.606060577,4211.87878746,2831.27272699,4397.84848441,1739.15151498,4155.2121208,2860.12121184,4309.24242381,1388.84848471,4989.75757526,2987.87878758,4119.15151474,16.4848484832,4426.69696925,12.3636363624,4203.1212117,12.3636363624,4839.33333285,0.0,4478.72727228,3828.60606022,42.0,42.0,?
2017-06-01 17:31:02.357407,4539.51515106,12.3636363624,4226.30302988,12.3636363624,3897.12121173,98.9090908992,3856.42424204,292.606060577,4205.69696928,2831.27272699,4395.78787835,1739.15151498,4151.09090868,2860.12121184,4301.51515109,1388.84848471,4972.75757526,2987.87878758,4117.09090868,16.4848484832,4426.69696925,12.3636363624,4198.99999958,12.3636363624,4841.90909042,0.0,4478.21212076,3828.60606022,42.0,42.0,?
2017-06-01 17:31:02.364472,4537.96969652,12.3636363624,4225.27272685,12.3636363624,3892.4848481,98.9090908992,3867.75757537,292.606060577,4205.18181776,2831.27272699,4395.78787835,1739.15151498,4143.87878746,2860.12121184,4286.57575715,1388.84848471,4973.78787829,2987.87878758,4110.9090905,16.4848484832,4426.69696925,12.3636363624,4196.93939352,12.3636363624,4842.93939346,0.0,4462.2424238,3828.60606022,42.0,42.0,?
2017-06-01 17:31:02.372538,4537.454545,12.3636363624,4222.18181776,12.3636363624,3877.54545416,98.9090908992,3871.87878749,292.606060577,4207.75757534,2831.27272699,4399.39393895,1739.15151498,4141.30302989,2860.12121184,4279.36363594,1388.84848471,4972.75757526,2987.87878758,4104.2121208,16.4848484832,4428.2424238,12.3636363624,4198.48484806,12.3636363624,4844.484848,0.0,4446.27272683,3828.60606022,42.0,42.0,?
2017-06-01 17:31:02.381472,4541.57575712,12.3636363624,4226.30302988,12.3636363624,3857.45454507,98.9090908992,3863.63636325,292.606060577,4222.18181776,2831.27272699,4410.72727229,1739.15151498,4142.84848443,2860.12121184,4277.81818139,1388.84848471,4938.24242375,2987.87878758,4095.45454505,16.4848484832,4427.21212077,12.3636363624,4197.96969655,12.3636363624,4842.93939346,0.0,4433.39393895,3828.60606022,42.0,42.0,?
2017-06-01 17:31:02.389452,4537.454545,12.3636363624,4226.8181814,12.3636363624,3841.4848481,98.9090908992,3858.4848481,292.606060577,4238.66666624,2831.27272699,4422.06060562,1739.15151498,4152.12121171,2860.12121184,4280.39393897,1388.84848471,4917.63636314,2987.87878758,4082.57575717,16.4848484832,4424.63636319,12.3636363624,4196.424242,12.3636363624,4836.24242376,0.0,4417.9393935,3828.60606022,42.0,42.0,?
2017-06-01 17:31:02.395988,4537.96969652,12.3636363624,4224.24242382,12.3636363624,3831.69696931,98.9090908992,3860.54545416,292.606060577,4244.84848442,2831.27272699,4429.78787834,1739.15151498,4168.60606019,2860.12121184,4293.78787836,1388.84848471,4934.63636314,2987.87878758,4079.99999959,16.4848484832,4430.30302986,12.3636363624,4196.93939352,12.3636363624,4841.90909042,0.0,4409.18181774,3828.60606022,42.0,42.0,?
2017-06-01 17:31:02.403393,4540.54545409,12.3636363624,4224.75757534,12.3636363624,3839.93939356,98.9090908992,3861.06060567,292.606060577,4252.06060564,2831.27272699,4436.99999956,1739.15151498,4185.09090867,2860.12121184,4308.21212078,1388.84848471,4948.03030254,2987.87878758,4094.93939353,16.4848484832,4426.18181774,12.3636363624,4196.93939352,12.3636363624,4841.90909042,0.0,4419.99999956,3828.60606022,42.0,42.0,?
2017-06-01 17:31:02.414970,4535.90909046,12.3636363624,4224.75757534,12.3636363624,3858.4848481,98.9090908992,3852.81818143,292.606060577,4259.78787836,2831.27272699,4441.12121168,1739.15151498,4192.30302988,2860.12121184,4310.27272684,1388.84848471,4940.30302981,2987.87878758,4102.66666626,16.4848484832,4424.63636319,12.3636363624,4196.424242,12.3636363624,4836.75757527,0.0,4439.57575713,3828.60606022,42.0,42.0,?
2017-06-01 17:31:02.421512,4538.99999955,12.3636363624,4226.30302988,12.3636363624,3860.03030264,98.9090908992,3839.93939356,292.606060577,4254.1212117,2831.27272699,4436.99999956,1739.15151498,4186.63636322,2860.12121184,4307.69696927,1388.84848471,4926.90909042,2987.87878758,4097.51515111,16.4848484832,4431.84848441,12.3636363624,4197.45454503,12.3636363624,4842.93939346,0.0,4445.75757531,3828.60606022,42.0,42.0,?
2017-06-01 17:31:02.428503,4537.96969652,12.3636363624,4225.27272685,12.3636363624,3855.90909052,98.9090908992,3837.36363598,292.606060577,4243.81818139,2831.27272699,4433.39393895,1739.15151498,4177.87878746,2860.12121184,4303.06060563,1388.84848471,4931.54545405,2987.87878758,4102.66666626,16.4848484832,4428.2424238,12.3636363624,4197.96969655,12.3636363624,4841.90909042,0.0,4448.8484844,3828.60606022,42.0,42.0,?
2017-06-01 17:31:02.436461,4536.42424197,12.3636363624,4224.75757534,12.3636363624,3866.21212083,98.9090908992,3846.12121174,292.606060577,4243.81818139,2831.27272699,4434.9393935,1739.15151498,4175.30302989,2860.12121184,4302.54545412,1388.84848471,4951.63636314,2987.87878758,4111.93939353,16.4848484832,4427.72727228,12.3636363624,4199.5151511,12.3636363624,4839.33333285,0.0,4453.99999955,3828.60606022,42.0,42.0,?
2017-06-01 17:31:02.444121,4541.57575712,12.3636363624,4224.24242382,12.3636363624,3875.4848481,98.9090908992,3858.99999961,292.606060577,4243.81818139,2831.27272699,4429.27272683,1739.15151498,4169.1212117,2860.12121184,4310.27272684,1388.84848471,4968.12121162,2987.87878758,4112.96969656,16.4848484832,4427.72727228,12.3636363624,4197.45454503,12.3636363624,4839.33333285,0.0,4452.96969652,3828.60606022,42.0,42.0,?
2017-06-01 17:31:02.451166,4538.99999955,12.3636363624,4222.18181776,12.3636363624,3878.06060567,98.9090908992,3873.93939355,292.606060577,4229.90909049,2831.27272699,4414.33333289,1739.15151498,4155.72727231,2860.12121184,4313.87878745,1388.84848471,4974.30302981,2987.87878758,4117.60606019,16.4848484832,4426.18181774,12.3636363624,4195.90909049,12.3636363624,4838.81818133,0.0,4455.5454541,3828.60606022,42.0,42.0,?
2017-06-01 17:31:02.460222,4538.48484803,12.3636363624,4224.24242382,12.3636363624,3885.7878784,98.9090908992,3874.45454507,292.606060577,4212.39393897,2831.27272699,4402.99999956,1739.15151498,4150.57575716,2860.12121184,4306.66666624,1388.84848471,4976.87878738,2987.87878758,4129.96969656,16.4848484832,4427.72727228,12.3636363624,4201.57575716,12.3636363624,4840.87878739,0.0,4464.81818137,3828.60606022,42.0,42.0,?
2017-06-01 17:31:02.466434,4538.99999955,12.3636363624,4223.7272723,12.3636363624,3887.33333294,98.9090908992,3856.93939355,292.606060577,4203.1212117,2831.27272699,4396.81818138,1739.15151498,4151.60606019,2860.12121184,4297.90909048,1388.84848471,4976.87878738,2987.87878758,4135.63636322,16.4848484832,4427.72727228,12.3636363624,4203.63636322,12.3636363624,4837.7878783,0.0,4464.81818137,3828.60606022,42.0,42.0,?
2017-06-01 17:31:02.475212,4537.454545,12.3636363624,4220.1212117,12.3636363624,3870.33333295,98.9090908992,3854.36363598,292.606060577,4202.60606019,2831.27272699,4394.75757532,1739.15151498,4150.06060565,2860.12121184,4292.75757533,1388.84848471,4970.6969692,2987.87878758,4124.30302989,16.4848484832,4431.33333289,12.3636363624,4200.03030261,12.3636363624,4839.84848436,0.0,4450.39393895,3828.60606022,42.0,42.0,?
2017-06-01 17:31:02.481559,4539.51515106,12.3636363624,4221.66666624,12.3636363624,3849.21212083,98.9090908992,3859.51515113,292.606060577,4208.78787837,2831.27272699,4402.48484804,1739.15151498,4153.66666625,2860.12121184,4284.51515109,1388.84848471,4960.3939389,2987.87878758,4107.30302989,16.4848484832,4429.27272683,12.3636363624,4198.48484806,12.3636363624,4840.36363588,0.0,4431.33333289,3828.60606022,42.0,42.0,?
2017-06-01 17:31:02.489618,4536.42424197,12.3636363624,4221.15151473,12.3636363624,3843.03030265,98.9090908992,3852.81818143,292.606060577,4223.21212079,2831.27272699,4413.30302986,1739.15151498,4163.45454504,2860.12121184,4274.7272723,1388.84848471,4944.42424193,2987.87878758,4107.81818141,16.4848484832,4426.69696925,12.3636363624,4198.48484806,12.3636363624,4837.27272679,0.0,4425.15151471,3828.60606022,42.0,42.0,?
2017-06-01 17:31:02.498326,4541.06060561,12.3636363624,4220.1212117,12.3636363624,3845.60606022,98.9090908992,3846.12121174,292.606060577,4240.7272723,2831.27272699,4424.12121168,1739.15151498,4172.72727231,2860.12121184,4275.75757533,1388.84848471,4930.51515102,2987.87878758,4116.57575716,16.4848484832,4429.78787834,12.3636363624,4197.96969655,12.3636363624,4843.96969649,0.0,4431.33333289,3828.60606022,42.0,42.0,?
2017-06-01 17:31:02.505545,4543.63636318,12.3636363624,4221.66666624,12.3636363624,3852.30302992,98.9090908992,3848.1818178,292.606060577,4249.99999958,2831.27272699,4430.30302986,1739.15151498,4186.1212117,2860.12121184,4294.81818139,1388.84848471,4936.18181769,2987.87878758,4120.69696928,16.4848484832,4427.72727228,12.3636363624,4198.99999958,12.3636363624,4842.42424194,0.0,4439.06060562,3828.60606022,42.0,42.0,?
2017-06-01 17:31:02.515297,4535.90909046,4.1212121208,4222.69696927,12.3636363624,3861.06060567,98.9090908992,3865.1818178,292.606060577,4251.54545412,2831.27272699,4436.99999956,1739.15151498,4203.1212117,2860.12121184,4315.42424199,1388.84848471,4952.15151466,2987.87878758,4136.15151474,16.4848484832,4430.30302986,12.3636363624,4201.06060564,12.3636363624,4841.39393891,0.0,4450.90909046,3828.60606022,42.0,42.0,?
2017-06-01 17:31:02.521193,4538.48484803,4.1212121208,4224.75757534,4.1212121208,3860.03030264,98.9090908992,3869.30302992,292.606060577,4252.57575715,2831.27272699,4447.30302986,1739.15151498,4204.66666625,2860.12121184,4315.93939351,1388.84848471,4955.75757526,2987.87878758,4142.84848443,16.4848484832,4428.75757531,12.3636363624,4197.45454503,12.3636363624,4842.42424194,0.0,4451.93939349,3828.60606022,42.0,42.0,?
2017-06-01 17:31:02.528382,4540.03030258,4.1212121208,4224.24242382,4.1212121208,3853.33333295,98.9090908992,3848.1818178,292.606060577,4256.18181776,2831.27272699,4448.8484844,1739.15151498,4195.90909049,2860.12121184,4311.30302987,1388.84848471,4956.78787829,2987.87878758,4128.42424201,16.4848484832,4424.12121168,12.3636363624,4195.90909049,12.3636363624,4838.30302982,0.0,4438.03030259,3824.4848481,42.0,42.0,?
2017-06-01 17:31:02.538544,4540.54545409,4.1212121208,4223.7272723,4.1212121208,3851.27272689,103.03030302,3832.21212083,292.606060577,4248.45454503,2831.27272699,4439.06060562,1739.15151498,4183.54545413,2860.12121184,4309.75757533,1388.84848471,4957.30302981,2987.87878758,4116.06060565,16.4848484832,4428.2424238,12.3636363624,4199.5151511,12.3636363624,4840.87878739,0.0,4431.84848441,3824.4848481,42.0,42.0,?
2017-06-01 17:31:02.544918,4540.03030258,4.1212121208,4224.75757534,4.1212121208,3855.39393901,103.03030302,3843.03030265,280.242424214,4232.99999958,2831.27272699,4426.18181774,1739.15151498,4164.99999958,2860.12121184,4302.0303026,1388.84848471,4950.60606011,2987.87878758,4120.18181777,16.4848484832,4427.21212077,12.3636363624,4196.424242,12.3636363624,4841.39393891,0.0,4439.57575713,3824.4848481,42.0,42.0,?
2017-06-01 17:31:02.552545,4537.96969652,4.1212121208,4225.27272685,4.1212121208,3872.39393901,103.03030302,3855.39393901,280.242424214,4225.27272685,2818.90909063,4413.81818138,1739.15151498,4149.54545413,2860.12121184,4296.87878745,1388.84848471,4963.48484799,2987.87878758,4141.8181814,16.4848484832,4427.72727228,12.3636363624,4196.424242,12.3636363624,4839.84848436,0.0,4452.96969652,3824.4848481,42.0,42.0,?
2017-06-01 17:31:02.561212,4541.57575712,4.1212121208,4226.8181814,4.1212121208,3896.0909087,103.03030302,3852.81818143,280.242424214,4218.57575715,2818.90909063,4402.99999956,1743.2727271,4141.30302989,2860.12121184,4298.42424199,1388.84848471,4983.06060556,2987.87878758,4161.39393898,16.4848484832,4429.27272683,12.3636363624,4203.1212117,12.3636363624,4840.36363588,0.0,4472.03030258,3824.4848481,42.0,42.0,?
2017-06-01 17:31:02.568048,4538.99999955,4.1212121208,4224.24242382,4.1212121208,3910.51515112,103.03030302,3869.30302992,280.242424214,4209.8181814,2818.90909063,4397.33333289,1743.2727271,4142.84848443,2851.87878759,4304.60606018,1388.84848471,4985.63636314,2987.87878758,4165.5151511,16.4848484832,4426.69696925,12.3636363624,4202.60606019,12.3636363624,4838.30302982,0.0,4491.60606016,3824.4848481,42.0,42.0,?
2017-06-01 17:31:02.575805,4537.96969652,4.1212121208,4222.69696927,4.1212121208,3908.96969658,103.03030302,3888.87878749,280.242424214,4206.72727231,2818.90909063,4392.69696926,1743.2727271,4153.15151474,2851.87878759,4315.42424199,1397.09090895,4997.48484799,2987.87878758,4163.96969655,16.4848484832,4429.78787834,12.3636363624,4200.03030261,12.3636363624,4841.39393891,0.0,4497.27272682,3824.4848481,42.0,42.0,?
2017-06-01 17:31:02.585422,4538.48484803,4.1212121208,4225.78787837,4.1212121208,3900.72727234,103.03030302,3884.75757537,280.242424214,4209.30302988,2818.90909063,4394.75757532,1743.2727271,4166.03030261,2851.87878759,4321.09090866,1397.09090895,5017.57575707,2996.12121182,4168.09090867,16.4848484832,4429.78787834,12.3636363624,4201.57575716,12.3636363624,4841.39393891,0.0,4490.06060561,3824.4848481,42.0,42.0,?
