Timestamp,F3 Value,F3 Quality,FC5 Value,FC5 Quality,F7 Value,F7 Quality,T7 Value,T7 Quality,P7 Value,P7 Quality,O1 Value,O1 Quality,O2 Value,O2 Quality,P8 Value,P8 Quality,T8 Value,T8 Quality,F8 Value,F8 Quality,AF4 Value,AF4 Quality,FC6 Value,FC6 Quality,F4 Value,F4 Quality,AF3 Value,AF3 Quality,X Value,Y Value,Z Value
2017-06-01 17:29:29.692126,4537.454545,0,4224.24242382,0,3850.24242386,0,3840.96969659,0,4222.69696927,0,4381.87878744,0,4146.96969656,0,4290.69696927,0,4926.3939389,0,4110.39393898,0,4428.75757531,0,4197.45454503,0,4835.72727224,0,4410.72727229,0,42.0,42.0,?
2017-06-01 17:29:29.696607,4539.51515106,0,4228.36363594,0,4023.84848445,0,3882.18181779,0,4309.75757533,0,4508.60606016,0,4264.93939351,0,4399.39393895,0,4940.30302981,0,4215.48484806,0,4426.69696925,0,4218.06060564,0,4837.7878783,0,4559.09090864,0,42.0,42.0,?
2017-06-01 17:29:29.700080,4534.36363591,0,4226.30302988,0,4022.3030299,0,3876.51515113,0,4310.78787836,0,4515.30302985,0,4270.09090866,0,4390.6363632,0,4952.66666617,0,4219.09090867,0,4427.72727228,0,4220.63636321,0,4842.42424194,0,4569.90909045,0,42.0,42.0,?
2017-06-01 17:29:29.704731,4540.54545409,0,4227.33333291,0,4037.24242384,0,3884.24242385,0,4330.87878745,0,4530.7575753,0,4290.69696927,0,4400.42424198,0,4977.3939389,0,4239.18181776,0,4425.15151471,0,4221.66666624,0,4843.96969649,0,4593.09090863,0,42.0,42.0,?
2017-06-01 17:29:29.707893,4539.51515106,0,4225.27272685,0,4039.3030299,0,3896.60606022,0,4339.6363632,0,4529.21212076,0,4296.36363593,0,4422.06060562,0,4965.03030253,0,4248.45454503,0,4423.09090865,0,4217.54545412,0,4837.27272679,0,4597.21212075,0,42.0,42.0,?
2017-06-01 17:29:29.713342,4538.48484803,0,4225.27272685,0,4022.3030299,0,3898.66666628,0,4318.51515108,0,4509.12121167,0,4275.24242381,0,4409.18181774,0,4936.6969692,0,4230.424242,0,4430.30302986,0,4219.09090867,0,4842.42424194,0,4579.18181772,0,42.0,42.0,?
2017-06-01 17:29:29.716400,4540.03030258,0,4225.27272685,0,4023.84848445,0,3887.33333294,0,4310.27272684,0,4509.63636319,0,4270.09090866,0,4386.51515108,0,4955.24242375,0,4215.48484806,0,4426.18181774,0,4219.09090867,0,4839.84848436,0,4575.57575712,0,42.0,42.0,?
2017-06-01 17:29:29.719403,4538.48484803,0,4222.69696927,0,4031.06060566,0,3884.24242385,0,4327.27272684,0,4528.69696924,0,4288.63636321,0,4400.42424198,0,4974.30302981,0,4216.51515109,0,4424.63636319,0,4216.51515109,0,4838.30302982,0,4580.21212075,0,42.0,42.0,?
2017-06-01 17:29:29.725708,4534.87878743,0,4226.30302988,0,4015.6060602,0,3890.42424204,0,4313.36363593,0,4526.12121167,0,4285.54545412,0,4408.15151471,0,4936.6969692,0,4202.09090867,0,4426.69696925,0,4215.99999958,0,4840.36363588,0,4557.03030257,0,42.0,42.0,?
2017-06-01 17:29:29.727084,4534.87878743,0,4226.30302988,0,4005.81818142,0,3892.99999961,0,4313.36363593,0,4507.57575713,0,4266.48484806,0,4383.9393935,0,4922.27272678,0,4180.45454504,0,4428.2424238,0,4215.48484806,0,4838.30302982,0,4532.30302985,0,42.0,42.0,?
2017-06-01 17:29:29.731372,4536.42424197,4.1212121208,4226.30302988,0,4011.9999996,0,3888.87878749,0,4305.12121169,0,4500.87878743,0,4257.21212079,0,4372.09090865,0,4938.75757526,0,4180.96969655,0,4430.30302986,0,4216.51515109,0,4844.99999952,0,4541.57575712,0,42.0,42.0,?
2017-06-01 17:29:29.734442,4539.51515106,4.1212121208,4228.87878746,4.1212121208,4019.72727233,0,3885.27272688,0,4304.60606018,0,4498.81818137,0,4251.54545412,0,4371.57575714,0,4916.60606011,0,4185.09090867,0,4423.09090865,0,4216.51515109,0,4843.45454497,0,4557.03030257,0,42.0,42.0,?
2017-06-01 17:29:29.737413,4535.39393894,4.1212121208,4223.21212079,4.1212121208,4025.39393899,0,3886.30302991,0,4300.99999957,0,4495.72727228,0,4253.09090867,0,4357.66666623,0,4914.54545405,0,4180.96969655,0,4426.18181774,0,4215.99999958,0,4840.36363588,0,4551.87878742,3787.39393902,42.0,42.0,?
2017-06-01 17:29:29.740418,4540.54545409,4.1212121208,4222.69696927,4.1212121208,4019.21212081,90.6666666576,3873.42424204,0,4306.15151472,0,4501.39393894,0,4256.18181776,0,4363.84848441,0,4929.48484799,0,4180.96969655,0,4429.78787834,0,4217.03030261,0,4841.39393891,0,4542.09090864,3787.39393902,42.0,42.0,?
2017-06-01 17:29:29.747280,4539.51515106,4.1212121208,4227.33333291,4.1212121208,4016.12121172,90.6666666576,3865.69696931,251.393939369,4320.06060563,0,4507.06060561,0,4258.24242382,0,4387.03030259,0,4907.33333284,0,4192.8181814,0,4424.63636319,0,4217.54545412,0,4837.27272679,0,4549.30302985,3787.39393902,42.0,42.0,?
2017-06-01 17:29:29.751157,4536.93939349,4.1212121208,4227.33333291,4.1212121208,4028.9999996,90.6666666576,3889.393939,251.393939369,4316.96969654,2827.15151487,4509.63636319,0,4267.51515109,0,4394.2424238,0,4928.96969648,0,4199.5151511,0,4429.27272683,0,4219.09090867,0,4842.42424194,0,4559.09090864,3787.39393902,42.0,42.0,?
2017-06-01 17:29:29.755363,4537.454545,4.1212121208,4225.78787837,4.1212121208,4018.6969693,90.6666666576,3894.54545416,251.393939369,4303.06060563,2827.15151487,4514.78787834,1780.36363619,4276.27272685,0,4391.66666623,0,4968.63636314,0,4188.69696928,0,4427.72727228,0,4215.48484806,0,4839.84848436,0,4552.90909045,3787.39393902,42.0,42.0,?
2017-06-01 17:29:29.761163,4533.8484844,4.1212121208,4224.24242382,4.1212121208,3978.51515112,90.6666666576,3873.93939355,251.393939369,4308.7272723,2827.15151487,4513.24242379,1780.36363619,4273.69696927,2839.51515123,4383.42424199,0,4918.15151466,0,4185.60606019,0,4427.21212077,0,4213.424242,0,4836.24242376,0,4541.57575712,3787.39393902,42.0,42.0,?
2017-06-01 17:29:29.768447,4540.54545409,4.1212121208,4225.27272685,4.1212121208,3954.30302991,90.6666666576,3872.90909052,251.393939369,4318.51515108,2827.15151487,4504.48484803,1780.36363619,4264.424242,2839.51515123,4370.54545411,1351.75757562,4883.12121163,0,4190.24242382,0,4430.81818138,0,4214.96969655,0,4841.90909042,0,4534.36363591,3787.39393902,42.0,42.0,?
2017-06-01 17:29:29.780079,4542.09090864,4.1212121208,4221.66666624,4.1212121208,3948.63636324,90.6666666576,3882.18181779,251.393939369,4314.39393896,2827.15151487,4508.60606016,1780.36363619,4258.24242382,2839.51515123,4381.36363593,1351.75757562,4940.81818132,2934.30303001,4183.54545413,0,4426.69696925,0,4213.93939352,0,4838.81818133,0,4536.42424197,3787.39393902,42.0,42.0,?
2017-06-01 17:29:29.786434,4537.454545,4.1212121208,4220.63636321,4.1212121208,3773.99999962,90.6666666576,3878.06060567,251.393939369,4309.75757533,2827.15151487,4514.27272682,1780.36363619,4252.57575715,2839.51515123,4389.60606017,1351.75757562,4962.45454496,2934.30303001,4172.72727231,61.818181812,4429.27272683,0,4214.45454503,0,4842.42424194,0,4540.03030258,3787.39393902,42.0,42.0,?
2017-06-01 17:29:29.792963,4539.51515106,4.1212121208,4226.30302988,4.1212121208,3638.51515115,90.6666666576,3875.4848481,251.393939369,4299.45454502,2827.15151487,4496.75757531,1780.36363619,4242.27272685,2839.51515123,4365.90909047,1351.75757562,4914.54545405,2934.30303001,4168.09090867,61.818181812,4429.27272683,4.1212121208,4215.99999958,0,4841.39393891,0,4532.30302985,3787.39393902,42.0,42.0,?
2017-06-01 17:29:29.800432,4538.48484803,4.1212121208,4225.78787837,4.1212121208,3847.15151477,90.6666666576,3886.30302991,251.393939369,4298.42424199,2827.15151487,4486.45454501,1780.36363619,4245.87878745,2839.51515123,4366.42424199,1351.75757562,4907.33333284,2934.30303001,4175.30302989,61.818181812,4428.2424238,4.1212121208,4217.54545412,4.1212121208,4838.81818133,0,4533.33333288,3787.39393902,42.0,42.0,?
2017-06-01 17:29:29.808243,4541.06060561,4.1212121208,4224.75757534,4.1212121208,3653.45454509,90.6666666576,3881.15151476,251.393939369,4295.84848442,2827.15151487,4493.1515147,1780.36363619,4252.06060564,2839.51515123,4381.36363593,1351.75757562,4918.15151466,2934.30303001,4179.93939352,61.818181812,4428.75757531,4.1212121208,4218.57575715,4.1212121208,4844.99999952,8.2424242416,4540.03030258,3787.39393902,42.0,42.0,?
2017-06-01 17:29:29.815341,4537.454545,4.1212121208,4225.27272685,4.1212121208,2998.6969694,90.6666666576,3858.4848481,251.393939369,4271.12121169,2827.15151487,4491.09090864,1780.36363619,4243.30302988,2839.51515123,4362.30302987,1351.75757562,4889.81818133,2934.30303001,4175.30302989,57.6969696912,4423.09090865,4.1212121208,4216.51515109,4.1212121208,4839.84848436,8.2424242416,4536.42424197,3787.39393902,42.0,42.0,?
2017-06-01 17:29:29.824121,4536.93939349,4.1212121208,4223.7272723,4.1212121208,3024.45454515,90.6666666576,3854.36363598,251.393939369,4274.7272723,2827.15151487,4501.90909046,1780.36363619,4246.90909048,2839.51515123,4358.18181775,1351.75757562,4895.99999951,2934.30303001,4177.36363595,57.6969696912,4427.72727228,12.3636363624,4217.03030261,4.1212121208,4841.90909042,8.2424242416,4540.54545409,3787.39393902,42.0,42.0,?
2017-06-01 17:29:29.831447,4544.1515147,4.1212121208,4225.27272685,4.1212121208,3659.12121176,90.6666666576,3864.66666628,251.393939369,4302.0303026,2827.15151487,4516.33333288,1780.36363619,4257.21212079,2839.51515123,4373.12121168,1351.75757562,4927.42424193,2934.30303001,4175.8181814,57.6969696912,4428.2424238,12.3636363624,4216.51515109,12.3636363624,4842.42424194,8.2424242416,4540.54545409,3787.39393902,42.0,42.0,?
2017-06-01 17:29:29.840965,4537.454545,4.1212121208,4224.24242382,4.1212121208,3926.48484809,90.6666666576,3867.24242386,251.393939369,4290.69696927,2827.15151487,4493.1515147,1780.36363619,4248.45454503,2839.51515123,4363.3333329,1351.75757562,4926.90909042,2934.30303001,4169.1212117,57.6969696912,4425.66666622,12.3636363624,4216.51515109,12.3636363624,4835.72727224,8.2424242416,4525.60606015,3787.39393902,42.0,42.0,?
2017-06-01 17:29:29.848438,4537.96969652,4.1212121208,4224.24242382,4.1212121208,3938.84848445,90.6666666576,3866.72727234,251.393939369,4290.69696927,2827.15151487,4487.99999955,1780.36363619,4252.06060564,2839.51515123,4368.99999956,1351.75757562,4939.78787829,2934.30303001,4180.45454504,57.6969696912,4427.72727228,12.3636363624,4220.63636321,12.3636363624,4840.36363588,8.2424242416,4533.33333288,3787.39393902,42.0,42.0,?
2017-06-01 17:29:29.854928,4540.54545409,4.1212121208,4225.27272685,4.1212121208,4045.48484808,90.6666666576,3881.66666628,251.393939369,4332.93939351,2827.15151487,4525.09090864,1780.36363619,4273.18181775,2839.51515123,4408.66666623,1351.75757562,4969.15151465,2934.30303001,4200.54545413,57.6969696912,4423.60606016,12.3636363624,4219.60606018,12.3636363624,4839.33333285,8.2424242416,4557.03030257,3787.39393902,42.0,42.0,?
2017-06-01 17:29:29.866475,4534.87878743,4.1212121208,4225.27272685,4.1212121208,4025.90909051,90.6666666576,3900.21212082,251.393939369,4334.99999957,2827.15151487,4528.69696924,1780.36363619,4269.57575715,2839.51515123,4413.30302986,1351.75757562,4960.90909041,2934.30303001,4202.09090867,57.6969696912,4429.27272683,12.3636363624,4215.48484806,12.3636363624,4840.36363588,8.2424242416,4553.93939348,3787.39393902,42.0,42.0,?
2017-06-01 17:29:29.872450,4541.06060561,4.1212121208,4224.24242382,4.1212121208,3991.90909051,90.6666666576,3896.0909087,251.393939369,4299.45454502,2827.15151487,4502.42424197,1780.36363619,4247.93939351,2839.51515123,4376.72727229,1351.75757562,4940.30302981,2934.30303001,4189.21212079,57.6969696912,4429.27272683,12.3636363624,4215.99999958,12.3636363624,4841.90909042,8.2424242416,4537.454545,3787.39393902,42.0,42.0,?
2017-06-01 17:29:29.879197,4543.63636318,4.1212121208,4220.1212117,4.1212121208,4034.15151475,90.6666666576,3882.18181779,251.393939369,4299.45454502,2827.15151487,4498.30302985,1780.36363619,4244.84848442,2839.51515123,4370.03030259,1351.75757562,4941.33333284,2934.30303001,4185.60606019,57.6969696912,4423.09090865,12.3636363624,4219.09090867,12.3636363624,4837.27272679,8.2424242416,4544.1515147,3787.39393902,42.0,42.0,?
2017-06-01 17:29:29.885393,4542.60606015,4.1212121208,4223.21212079,4.1212121208,4038.78787838,90.6666666576,3874.96969658,251.393939369,4310.78787836,2827.15151487,4496.75757531,1780.36363619,4244.84848442,2839.51515123,4385.99999956,1351.75757562,4929.48484799,2934.30303001,4185.60606019,57.6969696912,4426.69696925,12.3636363624,4220.1212117,12.3636363624,4840.87878739,8.2424242416,4553.42424197,3787.39393902,42.0,42.0,?
2017-06-01 17:29:29.894276,4541.06060561,4.1212121208,4227.33333291,4.1212121208,4022.81818142,90.6666666576,3881.15151476,251.393939369,4298.93939351,2827.15151487,4489.5454541,1780.36363619,4241.24242382,2839.51515123,4380.3333329,1351.75757562,4916.60606011,2934.30303001,4180.96969655,57.6969696912,4425.15151471,12.3636363624,4217.54545412,12.3636363624,4837.27272679,8.2424242416,4543.63636318,3787.39393902,42.0,42.0,?
2017-06-01 17:29:29.901396,4538.99999955,4.1212121208,4223.21212079,4.1212121208,4010.45454505,90.6666666576,3881.15151476,251.393939369,4291.7272723,2827.15151487,4494.69696925,1780.36363619,4251.03030261,2839.51515123,4373.6363632,1351.75757562,4923.30302981,2934.30303001,4183.03030261,57.6969696912,4427.72727228,12.3636363624,4216.51515109,12.3636363624,4837.27272679,8.2424242416,4542.09090864,3787.39393902,42.0,42.0,?
2017-06-01 17:29:29.911680,4541.06060561,4.1212121208,4223.7272723,4.1212121208,4027.96969657,90.6666666576,3864.66666628,251.393939369,4293.27272684,2827.15151487,4493.66666622,1780.36363619,4256.18181776,2839.51515123,4378.78787835,1351.75757562,4929.99999951,2934.30303001,4190.75757534,57.6969696912,4428.2424238,12.3636363624,4215.48484806,12.3636363624,4839.33333285,8.2424242416,4552.90909045,3787.39393902,42.0,42.0,?
2017-06-01 17:29:29.919851,4537.454545,4.1212121208,4225.27272685,4.1212121208,3979.54545415,90.6666666576,3862.60606022,251.393939369,4291.7272723,2827.15151487,4489.5454541,1780.36363619,4261.84848442,2839.51515123,4382.90909047,1351.75757562,4949.06060557,2934.30303001,4196.424242,57.6969696912,4426.18181774,12.3636363624,4215.99999958,12.3636363624,4836.24242376,8.2424242416,4559.09090864,3787.39393902,42.0,42.0,?
2017-06-01 17:29:29.926367,4537.96969652,4.1212121208,4226.30302988,4.1212121208,3949.15151476,90.6666666576,3873.93939355,251.393939369,4291.21212078,2827.15151487,4503.454545,1780.36363619,4269.57575715,2839.51515123,4380.84848441,1351.75757562,4940.30302981,2934.30303001,4196.424242,57.6969696912,4429.78787834,12.3636363624,4219.60606018,12.3636363624,4843.45454497,8.2424242416,4561.1515147,3787.39393902,42.0,42.0,?
2017-06-01 17:29:29.933194,4539.51515106,4.1212121208,4227.33333291,4.1212121208,4008.39393899,90.6666666576,3871.87878749,251.393939369,4287.60606018,2827.15151487,4509.12121167,1780.36363619,4254.1212117,2839.51515123,4371.06060562,1351.75757562,4900.63636315,2934.30303001,4208.78787837,57.6969696912,4424.12121168,12.3636363624,4219.60606018,12.3636363624,4842.42424194,8.2424242416,4566.30302985,3787.39393902,42.0,42.0,?
2017-06-01 17:29:29.942316,4533.8484844,4.1212121208,4224.75757534,4.1212121208,3938.84848445,90.6666666576,3869.81818143,251.393939369,4282.96969654,2827.15151487,4494.69696925,1780.36363619,4234.03030261,2839.51515123,4360.24242381,1351.75757562,4909.3939389,2934.30303001,4236.60606018,57.6969696912,4423.60606016,12.3636363624,4219.60606018,12.3636363624,4837.27272679,8.2424242416,4580.72727227,3787.39393902,42.0,42.0,?
2017-06-01 17:29:29.948944,4537.454545,4.1212121208,4224.75757534,4.1212121208,3756.99999962,90.6666666576,3875.99999961,251.393939369,4291.7272723,2827.15151487,4500.36363591,1780.36363619,4230.424242,2839.51515123,4368.99999956,1351.75757562,4935.15151466,2934.30303001,4259.78787836,57.6969696912,4429.78787834,12.3636363624,4220.1212117,12.3636363624,4838.81818133,8.2424242416,4602.3636359,3787.39393902,42.0,42.0,?
2017-06-01 17:29:29.956359,4540.03030258,4.1212121208,4222.69696927,4.1212121208,3780.1818178,90.6666666576,3871.87878749,251.393939369,4305.63636321,2827.15151487,4514.27272682,1780.36363619,4228.36363594,2839.51515123,4382.39393896,1351.75757562,4935.15151466,2934.30303001,4281.93939351,57.6969696912,4431.33333289,12.3636363624,4220.1212117,12.3636363624,4843.96969649,8.2424242416,4625.54545408,3787.39393902,42.0,42.0,?
2017-06-01 17:29:29.967094,4533.33333288,4.1212121208,4219.09090867,4.1212121208,3958.42424203,90.6666666576,3856.42424204,251.393939369,4296.36363593,2827.15151487,4493.1515147,1780.36363619,4218.57575715,2839.51515123,4370.03030259,1351.75757562,4927.93939345,2934.30303001,4288.63636321,57.6969696912,4418.96969653,12.3636363624,4219.09090867,12.3636363624,4834.69696921,8.2424242416,4635.33333287,3787.39393902,42.0,42.0,?
2017-06-01 17:29:29.972061,4532.30302985,4.1212121208,4220.63636321,4.1212121208,4039.3030299,90.6666666576,3854.36363598,251.393939369,4269.57575715,2827.15151487,4461.21212077,1780.36363619,4211.36363594,2839.51515123,4351.48484805,1351.75757562,4897.54545406,2934.30303001,4271.12121169,57.6969696912,4423.60606016,12.3636363624,4218.06060564,12.3636363624,4832.12121164,8.2424242416,4632.24242378,3787.39393902,42.0,42.0,?
2017-06-01 17:29:29.979661,4546.72727227,4.1212121208,4227.33333291,4.1212121208,4072.78787838,90.6666666576,3862.60606022,251.393939369,4258.24242382,2827.15151487,4463.27272683,1780.36363619,4215.48484806,2839.51515123,4344.78787835,1351.75757562,4878.484848,2934.30303001,4263.90909048,57.6969696912,4449.36363592,12.3636363624,4223.7272723,12.3636363624,4865.0909086,8.2424242416,4633.27272681,3787.39393902,42.0,42.0,?
2017-06-01 17:29:29.989274,4547.7575753,4.1212121208,4230.93939352,4.1212121208,4083.09090868,90.6666666576,3856.42424204,251.393939369,4264.93939351,2827.15151487,4481.81818137,1780.36363619,4225.27272685,2839.51515123,4347.36363593,1351.75757562,4901.66666618,2934.30303001,4262.87878745,57.6969696912,4428.2424238,12.3636363624,4222.69696927,12.3636363624,4847.57575709,8.2424242416,4628.12121166,3787.39393902,42.0,42.0,?
2017-06-01 17:29:29.995905,4532.81818136,4.1212121208,4224.75757534,4.1212121208,4098.03030262,90.6666666576,3853.33333295,251.393939369,4280.39393897,2827.15151487,4494.18181773,1780.36363619,4236.60606018,2839.51515123,4362.30302987,1351.75757562,4913.51515102,2934.30303001,4248.96969654,57.6969696912,4416.39393895,12.3636363624,4217.54545412,12.3636363624,4820.78787831,8.2424242416,4617.81818136,3787.39393902,42.0,42.0,?
2017-06-01 17:29:30.005165,4538.99999955,4.1212121208,4222.69696927,4.1212121208,4130.48484807,90.6666666576,3857.45454507,251.393939369,4280.90909048,2827.15151487,4495.21212076,1780.36363619,4242.27272685,2839.51515123,4371.06060562,1351.75757562,4906.30302981,2934.30303001,4238.15151473,57.6969696912,4436.99999956,12.3636363624,4219.60606018,12.3636363624,4844.99999952,8.2424242416,4610.60606014,3787.39393902,42.0,42.0,?
2017-06-01 17:29:30.012523,4542.60606015,4.1212121208,4223.7272723,4.1212121208,3957.90909051,90.6666666576,3847.15151477,251.393939369,4264.93939351,2827.15151487,4487.48484804,1780.36363619,4241.75757533,2839.51515123,4364.36363593,1351.75757562,4918.15151466,2934.30303001,4241.75757533,57.6969696912,4424.63636319,12.3636363624,4219.09090867,12.3636363624,4841.39393891,8.2424242416,4603.90909045,3787.39393902,42.0,42.0,?
2017-06-01 17:29:30.020085,4536.93939349,4.1212121208,4221.66666624,4.1212121208,3755.96969659,90.6666666576,3849.72727234,251.393939369,4273.69696927,2827.15151487,4492.63636319,1780.36363619,4239.69696927,2839.51515123,4375.69696926,1351.75757562,4919.6969692,2934.30303001,4247.93939351,57.6969696912,4422.57575713,12.3636363624,4219.60606018,12.3636363624,4834.69696921,8.2424242416,4610.60606014,3787.39393902,42.0,42.0,?
2017-06-01 17:29:30.026351,4541.57575712,4.1212121208,4225.27272685,4.1212121208,3905.36363597,90.6666666576,3862.60606022,251.393939369,4291.7272723,2827.15151487,4499.33333288,1780.36363619,4223.7272723,2839.51515123,4378.78787835,1351.75757562,4914.03030254,2934.30303001,4235.57575715,57.6969696912,4432.87878744,12.3636363624,4220.63636321,12.3636363624,4842.42424194,8.2424242416,4614.72727227,3787.39393902,42.0,42.0,?
2017-06-01 17:29:30.034564,4538.99999955,4.1212121208,4224.75757534,4.1212121208,4085.15151474,90.6666666576,3867.24242386,251.393939369,4280.39393897,2827.15151487,4485.42424198,1780.36363619,4206.72727231,2839.51515123,4350.45454502,1351.75757562,4918.66666617,2934.30303001,4218.57575715,57.6969696912,4428.2424238,12.3636363624,4217.03030261,12.3636363624,4836.24242376,8.2424242416,4600.30302984,3787.39393902,42.0,42.0,?
2017-06-01 17:29:30.042554,4535.90909046,4.1212121208,4222.18181776,4.1212121208,3916.69696931,90.6666666576,3876.51515113,251.393939369,4269.06060563,2827.15151487,4481.81818137,1780.36363619,4212.90909049,2839.51515123,4344.27272684,1351.75757562,4892.3939389,2934.30303001,4223.21212079,57.6969696912,4428.75757531,12.3636363624,4217.54545412,12.3636363624,4839.33333285,8.2424242416,4589.99999954,3787.39393902,42.0,42.0,?
2017-06-01 17:29:30.052203,4541.57575712,4.1212121208,4226.8181814,4.1212121208,3804.39393901,90.6666666576,3879.0909087,251.393939369,4281.424242,2827.15151487,4501.90909046,1780.36363619,4230.93939352,2839.51515123,4367.96969653,1351.75757562,4882.60606012,2934.30303001,4230.93939352,57.6969696912,4428.2424238,12.3636363624,4220.1212117,12.3636363624,4839.33333285,8.2424242416,4589.99999954,3787.39393902,42.0,42.0,?
2017-06-01 17:29:30.058750,4539.51515106,4.1212121208,4225.78787837,4.1212121208,3982.12121172,90.6666666576,3864.15151477,251.393939369,4292.24242381,2827.15151487,4508.09090864,1780.36363619,4248.96969654,2839.51515123,4379.30302987,1351.75757562,4934.63636314,2934.30303001,4227.84848443,57.6969696912,4427.21212077,12.3636363624,4219.09090867,12.3636363624,4834.69696921,8.2424242416,4584.33333287,3787.39393902,42.0,42.0,?
2017-06-01 17:29:30.067618,4539.51515106,4.1212121208,4223.7272723,4.1212121208,4077.42424202,90.6666666576,3857.96969658,251.393939369,4285.0303026,2827.15151487,4495.21212076,1780.36363619,4261.33333291,2839.51515123,4380.84848441,1351.75757562,4957.81818132,2934.30303001,4221.66666624,57.6969696912,4429.27272683,12.3636363624,4218.06060564,12.3636363624,4842.42424194,8.2424242416,4567.84848439,3787.39393902,42.0,42.0,?
2017-06-01 17:29:30.074502,4541.06060561,4.1212121208,4224.75757534,4.1212121208,4021.78787839,90.6666666576,3862.0909087,251.393939369,4284.51515109,2827.15151487,4494.18181773,1780.36363619,4261.84848442,2839.51515123,4390.12121168,1351.75757562,4938.75757526,2934.30303001,4211.87878746,57.6969696912,4427.72727228,12.3636363624,4218.57575715,12.3636363624,4842.93939346,8.2424242416,4550.84848439,3787.39393902,42.0,42.0,?
2017-06-01 17:29:30.083443,4535.90909046,4.1212121208,4222.69696927,4.1212121208,4016.12121172,90.6666666576,3855.90909052,251.393939369,4296.36363593,2827.15151487,4502.42424197,1780.36363619,4259.27272685,2839.51515123,4389.60606017,1351.75757562,4945.96969648,2934.30303001,4196.93939352,57.6969696912,4428.75757531,12.3636363624,4219.60606018,12.3636363624,4837.7878783,8.2424242416,4540.03030258,3787.39393902,42.0,42.0,?
2017-06-01 17:29:30.089564,4536.42424197,4.1212121208,4222.69696927,4.1212121208,4042.9090905,90.6666666576,3864.66666628,251.393939369,4297.90909048,2827.15151487,4501.90909046,1780.36363619,4258.75757533,2839.51515123,4382.90909047,1351.75757562,4934.12121163,2934.30303001,4185.09090867,57.6969696912,4427.72727228,12.3636363624,4215.99999958,12.3636363624,4836.24242376,8.2424242416,4536.93939349,3787.39393902,42.0,42.0,?
2017-06-01 17:29:30.097427,4537.96969652,4.1212121208,4222.18181776,4.1212121208,4034.15151475,90.6666666576,3883.72727234,251.393939369,4285.0303026,2827.15151487,4492.12121167,1780.36363619,4246.90909048,2839.51515123,4379.30302987,1351.75757562,4890.84848436,2934.30303001,4178.39393898,57.6969696912,4427.21212077,12.3636363624,4215.99999958,12.3636363624,4835.72727224,8.2424242416,4536.42424197,3787.39393902,42.0,42.0,?
2017-06-01 17:29:30.104708,4538.99999955,4.1212121208,4222.69696927,4.1212121208,4009.93939354,90.6666666576,3861.57575719,251.393939369,4274.21212078,2827.15151487,4483.36363592,1780.36363619,4225.78787837,2839.51515123,4358.69696926,1351.75757562,4890.84848436,2934.30303001,4157.78787837,57.6969696912,4431.84848441,12.3636363624,4213.424242,12.3636363624,4839.84848436,8.2424242416,4522.51515106,3787.39393902,42.0,42.0,?
2017-06-01 17:29:30.112389,4538.99999955,4.1212121208,4223.21212079,4.1212121208,3993.96969657,90.6666666576,3834.27272689,251.393939369,4267.51515109,2827.15151487,4477.18181773,1780.36363619,4206.72727231,2839.51515123,4338.09090866,1351.75757562,4907.33333284,2934.30303001,4135.63636322,57.6969696912,4428.2424238,12.3636363624,4207.24242382,12.3636363624,4837.27272679,8.2424242416,4503.454545,3787.39393902,42.0,42.0,?
2017-06-01 17:29:30.121452,4537.454545,4.1212121208,4222.18181776,4.1212121208,3998.09090869,90.6666666576,3841.4848481,251.393939369,4260.81818139,2827.15151487,4469.96969652,1780.36363619,4195.90909049,2839.51515123,4343.75757532,1351.75757562,4907.33333284,2934.30303001,4142.84848443,57.6969696912,4426.18181774,12.3636363624,4211.87878746,12.3636363624,4838.30302982,8.2424242416,4503.96969652,3787.39393902,42.0,42.0,?
2017-06-01 17:29:30.129502,4542.09090864,4.1212121208,4225.27272685,4.1212121208,4008.39393899,90.6666666576,3844.06060568,251.393939369,4260.30302988,2827.15151487,4470.48484804,1780.36363619,4192.30302988,2839.51515123,4345.81818138,1351.75757562,4904.24242375,2934.30303001,4166.03030261,57.6969696912,4426.18181774,12.3636363624,4221.15151473,12.3636363624,4840.87878739,8.2424242416,4518.39393894,3787.39393902,42.0,42.0,?
2017-06-01 17:29:30.137184,4537.96969652,4.1212121208,4225.27272685,4.1212121208,4001.6969693,90.6666666576,3835.30302992,251.393939369,4260.30302988,2827.15151487,4479.75757531,1780.36363619,4197.45454503,2839.51515123,4338.09090866,1351.75757562,4883.63636315,2934.30303001,4176.84848443,57.6969696912,4426.69696925,12.3636363624,4219.09090867,12.3636363624,4836.75757527,8.2424242416,4521.99999955,3787.39393902,42.0,42.0,?
2017-06-01 17:29:30.145082,4536.42424197,4.1212121208,4224.24242382,4.1212121208,3982.12121172,90.6666666576,3833.75757537,251.393939369,4256.18181776,2827.15151487,4477.69696925,1780.36363619,4208.78787837,2839.51515123,4353.03030259,1351.75757562,4876.42424194,2934.30303001,4174.27272686,57.6969696912,4432.36363592,12.3636363624,4217.03030261,12.3636363624,4839.33333285,8.2424242416,4516.8484844,3787.39393902,42.0,42.0,?
2017-06-01 17:29:30.152409,4543.12121167,4.1212121208,4224.75757534,4.1212121208,3983.15151475,90.6666666576,3828.60606022,251.393939369,4247.424242,2827.15151487,4465.33333289,1780.36363619,4219.60606018,2839.51515123,4369.51515108,1351.75757562,4919.18181769,2934.30303001,4171.69696928,57.6969696912,4426.18181774,12.3636363624,4218.57575715,12.3636363624,4838.30302982,8.2424242416,4516.8484844,3787.39393902,42.0,42.0,?
2017-06-01 17:29:30.160069,4540.54545409,4.1212121208,4221.15151473,4.1212121208,3986.24242384,90.6666666576,3817.27272689,251.393939369,4230.424242,2827.15151487,4459.66666622,1780.36363619,4225.27272685,2839.51515123,4357.15151472,1351.75757562,4932.57575708,2934.30303001,4172.72727231,57.6969696912,4424.12121168,12.3636363624,4217.54545412,12.3636363624,4837.27272679,8.2424242416,4517.87878743,3787.39393902,42.0,42.0,?
2017-06-01 17:29:30.167792,4542.60606015,4.1212121208,4222.18181776,4.1212121208,3898.66666628,90.6666666576,3803.8787875,251.393939369,4233.51515109,2827.15151487,4464.81818137,1780.36363619,4223.7272723,2839.51515123,4346.84848441,1351.75757562,4890.84848436,2934.30303001,4162.93939352,57.6969696912,4428.75757531,12.3636363624,4214.96969655,12.3636363624,4841.39393891,8.2424242416,4514.27272682,3787.39393902,42.0,42.0,?
2017-06-01 17:29:30.176251,4541.06060561,4.1212121208,4222.18181776,4.1212121208,3809.03030265,90.6666666576,3793.5757572,251.393939369,4261.33333291,2827.15151487,4472.03030258,1780.36363619,4220.63636321,2839.51515123,4359.72727229,1351.75757562,4888.7878783,2934.30303001,4148.5151511,57.6969696912,4427.21212077,12.3636363624,4215.99999958,12.3636363624,4838.30302982,8.2424242416,4503.96969652,3787.39393902,42.0,42.0,?
2017-06-01 17:29:30.183700,4536.42424197,4.1212121208,4219.60606018,4.1212121208,3842.51515113,90.6666666576,3782.75757538,251.393939369,4248.45454503,2827.15151487,4458.12121168,1780.36363619,4200.03030261,2839.51515123,4348.90909047,1351.75757562,4902.69696921,2934.30303001,4129.45454504,57.6969696912,4428.75757531,12.3636363624,4212.90909049,12.3636363624,4838.81818133,8.2424242416,4468.93939349,3787.39393902,42.0,42.0,?
2017-06-01 17:29:30.191231,4540.54545409,4.1212121208,4222.69696927,4.1212121208,3905.36363597,90.6666666576,3775.54545417,251.393939369,4219.60606018,2827.15151487,4441.12121168,1780.36363619,4173.24242383,2839.51515123,4317.99999957,1351.75757562,4869.21212073,2934.30303001,4100.6060602,57.6969696912,4428.2424238,12.3636363624,4205.69696928,12.3636363624,4837.7878783,8.2424242416,4428.75757531,3787.39393902,42.0,42.0,?
2017-06-01 17:29:30.198428,4538.99999955,4.1212121208,4223.7272723,4.1212121208,3918.24242385,90.6666666576,3793.06060568,251.393939369,4240.21212079,2827.15151487,4458.63636319,1780.36363619,4183.03030261,2839.51515123,4322.12121169,1351.75757562,4844.484848,2934.30303001,4087.72727232,57.6969696912,4428.2424238,12.3636363624,4210.84848443,12.3636363624,4835.72727224,8.2424242416,4426.18181774,3787.39393902,42.0,42.0,?
2017-06-01 17:29:30.208583,4538.48484803,4.1212121208,4223.21212079,4.1212121208,3926.48484809,90.6666666576,3816.24242386,251.393939369,4241.75757533,2827.15151487,4464.81818137,1780.36363619,4187.66666625,2839.51515123,4320.57575714,1351.75757562,4822.84848437,2934.30303001,4083.09090868,57.6969696912,4430.30302986,12.3636363624,4214.96969655,12.3636363624,4839.33333285,8.2424242416,4424.63636319,3787.39393902,42.0,42.0,?
2017-06-01 17:29:30.215026,4536.93939349,8.2424242416,4220.63636321,4.1212121208,3945.03030264,90.6666666576,3819.33333295,251.393939369,4213.424242,2827.15151487,4443.69696925,1780.36363619,4164.48484807,2839.51515123,4297.39393896,1351.75757562,4797.09090861,2934.30303001,4073.81818141,57.6969696912,4426.69696925,12.3636363624,4208.78787837,12.3636363624,4837.27272679,8.2424242416,4407.6363632,3787.39393902,42.0,42.0,?
2017-06-01 17:29:30.222396,4538.99999955,8.2424242416,4220.1212117,8.2424242416,3963.57575718,90.6666666576,3820.36363598,251.393939369,4243.81818139,2827.15151487,4458.12121168,1780.36363619,4170.15151473,2839.51515123,4315.93939351,1351.75757562,4835.72727224,2934.30303001,4085.15151474,57.6969696912,4430.30302986,12.3636363624,4211.87878746,12.3636363624,4839.84848436,8.2424242416,4424.12121168,3787.39393902,42.0,42.0,?
2017-06-01 17:29:30.232051,4544.1515147,8.2424242416,4224.75757534,8.2424242416,3989.84848445,90.6666666576,3826.03030265,251.393939369,4278.84848442,2827.15151487,4485.42424198,1780.36363619,4194.36363594,2839.51515123,4340.15151472,1351.75757562,4886.72727224,2934.30303001,4106.27272686,57.6969696912,4430.81818138,12.3636363624,4218.06060564,12.3636363624,4838.81818133,8.2424242416,4456.57575713,3787.39393902,42.0,42.0,?
2017-06-01 17:29:30.237343,4538.99999955,8.2424242416,4223.21212079,8.2424242416,3988.3030299,226.666666644,3820.8787875,251.393939369,4251.03030261,2827.15151487,4470.99999955,1780.36363619,4193.84848443,2839.51515123,4323.66666623,1351.75757562,4868.1818177,2934.30303001,4108.84848444,57.6969696912,4428.2424238,12.3636363624,4215.99999958,12.3636363624,4835.21212073,8.2424242416,4459.66666622,3787.39393902,42.0,42.0,?
2017-06-01 17:29:30.245362,4541.06060561,8.2424242416,4223.7272723,8.2424242416,3960.48484809,226.666666644,3812.63636326,251.393939369,4224.24242382,2827.15151487,4457.60606016,1780.36363619,4188.69696928,2839.51515123,4319.0303026,1351.75757562,4854.27272679,2934.30303001,4107.81818141,57.6969696912,4429.27272683,12.3636363624,4211.87878746,12.3636363624,4839.84848436,8.2424242416,4448.8484844,3787.39393902,42.0,42.0,?
2017-06-01 17:29:30.253900,4542.09090864,8.2424242416,4225.27272685,8.2424242416,3953.27272688,226.666666644,3816.24242386,251.393939369,4239.18181776,2810.66666639,4468.42424198,1780.36363619,4204.15151473,2839.51515123,4339.6363632,1351.75757562,4889.30302981,2934.30303001,4130.48484807,57.6969696912,4426.69696925,12.3636363624,4214.96969655,12.3636363624,4837.7878783,8.2424242416,4456.57575713,3787.39393902,42.0,42.0,?
2017-06-01 17:29:30.262398,4536.93939349,8.2424242416,4222.18181776,8.2424242416,3952.75757536,226.666666644,3814.1818178,251.393939369,4250.51515109,2810.66666639,4469.45454501,1763.8787877,4215.99999958,2839.51515123,4347.36363593,1351.75757562,4891.36363587,2934.30303001,4154.69696928,57.6969696912,4428.75757531,12.3636363624,4220.1212117,12.3636363624,4839.33333285,8.2424242416,4472.03030258,3787.39393902,42.0,42.0,?
2017-06-01 17:29:30.270056,4540.03030258,8.2424242416,4223.21212079,8.2424242416,3946.57575718,226.666666644,3795.12121174,251.393939369,4237.63636321,2810.66666639,4460.69696925,1763.8787877,4208.27272685,2847.75757547,4341.69696926,1351.75757562,4872.81818133,2934.30303001,4150.06060565,57.6969696912,4427.72727228,12.3636363624,4217.54545412,12.3636363624,4840.87878739,8.2424242416,4476.1515147,3787.39393902,42.0,42.0,?
2017-06-01 17:29:30.277749,4538.99999955,8.2424242416,4223.7272723,8.2424242416,3941.93939355,226.666666644,3787.90909053,251.393939369,4232.99999958,2810.66666639,4460.18181774,1763.8787877,4206.21212079,2847.75757547,4343.75757532,1376.48484835,4901.15151466,2934.30303001,4138.2121208,57.6969696912,4425.15151471,12.3636363624,4213.424242,12.3636363624,4837.7878783,8.2424242416,4473.57575713,3787.39393902,42.0,42.0,?
2017-06-01 17:29:30.284310,4540.54545409,8.2424242416,4223.7272723,8.2424242416,3934.72727233,226.666666644,3802.84848447,251.393939369,4241.75757533,2810.66666639,4464.30302986,1763.8787877,4210.33333291,2847.75757547,4347.36363593,1376.48484835,4917.12121163,2942.54545425,4134.60606019,57.6969696912,4429.78787834,12.3636363624,4212.39393897,12.3636363624,4841.39393891,8.2424242416,4466.87878743,3787.39393902,42.0,42.0,?
2017-06-01 17:29:30.292393,4541.06060561,8.2424242416,4223.7272723,8.2424242416,3921.84848446,226.666666644,3811.09090871,251.393939369,4239.69696927,2810.66666639,4463.78787834,1763.8787877,4202.09090867,2847.75757547,4333.96969654,1376.48484835,4884.66666618,2942.54545425,4123.78787838,53.5757575704,4428.75757531,12.3636363624,4212.39393897,12.3636363624,4836.75757527,8.2424242416,4453.99999955,3787.39393902,42.0,42.0,?
2017-06-01 17:29:30.302010,4538.48484803,8.2424242416,4223.21212079,8.2424242416,3921.33333294,226.666666644,3806.96969659,251.393939369,4241.75757533,2810.66666639,4460.69696925,1763.8787877,4194.87878746,2847.75757547,4324.18181775,1376.48484835,4860.96969648,2942.54545425,4112.45454504,53.5757575704,4428.2424238,12.3636363624,4214.96969655,12.3636363624,4836.75757527,8.2424242416,4446.78787834,3787.39393902,42.0,42.0,?
2017-06-01 17:29:30.308732,4544.1515147,8.2424242416,4224.75757534,8.2424242416,3928.03030264,226.666666644,3800.27272689,251.393939369,4261.33333291,2810.66666639,4468.93939349,1763.8787877,4198.48484806,2847.75757547,4330.87878745,1376.48484835,4855.30302982,2942.54545425,4107.30302989,53.5757575704,4425.66666622,12.3636363624,4214.96969655,12.3636363624,4841.39393891,8.2424242416,4447.30302986,3787.39393902,42.0,42.0,?
2017-06-01 17:29:30.316394,4541.57575712,8.2424242416,4223.21212079,8.2424242416,3914.63636324,226.666666644,3798.21212083,251.393939369,4250.51515109,2810.66666639,4470.99999955,1763.8787877,4190.75757534,2847.75757547,4313.36363593,1376.48484835,4838.81818133,2942.54545425,4089.78787838,53.5757575704,4423.09090865,12.3636363624,4209.8181814,12.3636363624,4837.27272679,12.3636363624,4434.42424198,3787.39393902,42.0,42.0,?
2017-06-01 17:29:30.324413,4539.51515106,8.2424242416,4223.21212079,8.2424242416,3900.72727234,226.666666644,3794.60606023,251.393939369,4222.69696927,2810.66666639,4456.06060561,1763.8787877,4176.33333292,2847.75757547,4292.24242381,1376.48484835,4833.15151467,2942.54545425,4081.03030262,57.6969696912,4428.75757531,12.3636363624,4212.39393897,12.3636363624,4838.30302982,12.3636363624,4424.12121168,3787.39393902,42.0,42.0,?
2017-06-01 17:29:30.331452,4542.60606015,8.2424242416,4225.27272685,8.2424242416,3915.66666628,226.666666644,3783.27272689,251.393939369,4237.63636321,2810.66666639,4456.57575713,1763.8787877,4183.54545413,2847.75757547,4317.99999957,1376.48484835,4853.75757527,2942.54545425,4104.72727232,57.6969696912,4427.72727228,12.3636363624,4220.63636321,12.3636363624,4837.27272679,12.3636363624,4437.51515107,3787.39393902,42.0,42.0,?
2017-06-01 17:29:30.341649,4538.48484803,8.2424242416,4222.69696927,8.2424242416,3934.72727233,226.666666644,3784.81818144,251.393939369,4258.75757533,2810.66666639,4469.45454501,1763.8787877,4196.93939352,2847.75757547,4339.6363632,1376.48484835,4861.484848,2942.54545425,4117.09090868,57.6969696912,4426.69696925,12.3636363624,4218.57575715,12.3636363624,4837.27272679,12.3636363624,4450.39393895,3787.39393902,42.0,42.0,?
2017-06-01 17:29:30.348349,4539.51515106,8.2424242416,4223.7272723,8.2424242416,3934.72727233,226.666666644,3795.12121174,251.393939369,4238.15151473,2810.66666639,4458.12121168,1763.8787877,4184.06060564,2847.75757547,4312.84848442,1376.48484835,4844.99999952,2942.54545425,4098.54545414,57.6969696912,4427.72727228,12.3636363624,4211.36363594,12.3636363624,4841.39393891,12.3636363624,4444.72727228,3787.39393902,42.0,42.0,?
2017-06-01 17:29:30.357268,4537.96969652,8.2424242416,4225.27272685,8.2424242416,3936.78787839,226.666666644,3801.30302992,251.393939369,4222.69696927,2810.66666639,4441.12121168,1763.8787877,4171.69696928,2847.75757547,4305.63636321,1376.48484835,4847.57575709,2942.54545425,4096.99999959,57.6969696912,4427.72727228,12.3636363624,4211.36363594,12.3636363624,4836.24242376,12.3636363624,4444.21212077,3787.39393902,42.0,42.0,?
2017-06-01 17:29:30.363850,4538.48484803,8.2424242416,4223.7272723,8.2424242416,3951.72727233,226.666666644,3812.12121174,251.393939369,4236.09090867,2810.66666639,4447.81818137,1763.8787877,4181.99999958,2847.75757547,4325.72727229,1376.48484835,4884.15151466,2942.54545425,4119.15151474,57.6969696912,4431.33333289,12.3636363624,4214.45454503,12.3636363624,4838.81818133,12.3636363624,4458.12121168,3787.39393902,42.0,42.0,?
2017-06-01 17:29:30.374177,4541.06060561,8.2424242416,4222.69696927,8.2424242416,3961.51515112,226.666666644,3820.8787875,251.393939369,4238.15151473,2810.66666639,4452.96969652,1763.8787877,4189.72727231,2847.75757547,4320.57575714,1376.48484835,4881.57575709,2942.54545425,4125.84848444,57.6969696912,4428.2424238,12.3636363624,4212.39393897,12.3636363624,4840.36363588,12.3636363624,4464.81818137,3787.39393902,42.0,42.0,?
2017-06-01 17:29:30.380120,4537.454545,8.2424242416,4222.18181776,8.2424242416,3959.96969657,226.666666644,3816.24242386,251.393939369,4224.24242382,2810.66666639,4446.27272683,1763.8787877,4188.69696928,2847.75757547,4311.30302987,1376.48484835,4841.39393891,2942.54545425,4123.27272686,57.6969696912,4427.72727228,12.3636363624,4213.424242,12.3636363624,4838.30302982,12.3636363624,4462.75757531,3787.39393902,42.0,42.0,?
2017-06-01 17:29:30.387262,4541.06060561,8.2424242416,4225.27272685,8.2424242416,3948.63636324,226.666666644,3804.90909053,251.393939369,4228.36363594,2810.66666639,4455.5454541,1763.8787877,4195.39393897,2847.75757547,4320.57575714,1376.48484835,4855.30302982,2942.54545425,4118.12121171,57.6969696912,4430.30302986,12.3636363624,4215.48484806,12.3636363624,4840.36363588,12.3636363624,4455.03030258,3787.39393902,42.0,42.0,?
2017-06-01 17:29:30.396304,4540.54545409,8.2424242416,4224.75757534,8.2424242416,3935.24242385,226.666666644,3801.81818144,251.393939369,4244.84848442,2810.66666639,4464.30302986,1763.8787877,4195.39393897,2847.75757547,4331.90909048,1376.48484835,4890.33333284,2942.54545425,4104.2121208,57.6969696912,4427.21212077,12.3636363624,4212.90909049,12.3636363624,4838.30302982,12.3636363624,4443.69696925,3787.39393902,42.0,42.0,?
2017-06-01 17:29:30.403652,4538.48484803,8.2424242416,4222.69696927,8.2424242416,3930.0909087,226.666666644,3797.1818178,251.393939369,4243.81818139,2810.66666639,4455.5454541,1763.8787877,4180.45454504,2847.75757547,4326.75757532,1376.48484835,4871.7878783,2942.54545425,4094.42424201,57.6969696912,4428.75757531,12.3636363624,4212.39393897,12.3636363624,4842.42424194,12.3636363624,4441.12121168,3787.39393902,42.0,42.0,?
2017-06-01 17:29:30.411627,4544.1515147,8.2424242416,4225.78787837,8.2424242416,3932.15151476,226.666666644,3781.21212083,251.393939369,4237.1212117,2810.66666639,4450.90909046,1763.8787877,4173.75757534,2847.75757547,4311.81818139,1376.48484835,4843.96969649,2942.54545425,4093.39393898,57.6969696912,4426.18181774,12.3636363624,4213.424242,12.3636363624,4843.96969649,12.3636363624,4447.81818137,3787.39393902,42.0,42.0,?
2017-06-01 17:29:30.418033,4540.03030258,8.2424242416,4222.69696927,8.2424242416,3929.06060567,226.666666644,3787.90909053,251.393939369,4232.48484806,2810.66666639,4444.72727228,1763.8787877,4177.87878746,2847.75757547,4308.7272723,1376.48484835,4844.99999952,2942.54545425,4088.24242383,57.6969696912,4425.66666622,12.3636363624,4212.90909049,12.3636363624,4840.36363588,12.3636363624,4447.30302986,3787.39393902,42.0,42.0,?
2017-06-01 17:29:30.425522,4539.51515106,8.2424242416,4221.15151473,8.2424242416,3918.75757537,226.666666644,3806.45454507,251.393939369,4212.90909049,2810.66666639,4428.2424238,1763.8787877,4171.18181776,2847.75757547,4298.42424199,1376.48484835,4831.60606012,2942.54545425,4072.78787838,57.6969696912,4429.27272683,12.3636363624,4211.87878746,12.3636363624,4842.93939346,12.3636363624,4432.36363592,3787.39393902,42.0,42.0,?
2017-06-01 17:29:30.436444,4541.06060561,8.2424242416,4221.66666624,8.2424242416,3927.51515112,226.666666644,3795.12121174,251.393939369,4211.87878746,2810.66666639,4427.21212077,1763.8787877,4168.60606019,2847.75757547,4293.78787836,1376.48484835,4824.90909043,2942.54545425,4079.99999959,57.6969696912,4426.18181774,12.3636363624,4210.84848443,12.3636363624,4841.90909042,12.3636363624,4437.51515107,3787.39393902,42.0,42.0,?
2017-06-01 17:29:30.441609,4538.48484803,8.2424242416,4222.18181776,8.2424242416,3949.66666627,226.666666644,3778.12121174,251.393939369,4231.96969655,2810.66666639,4439.06060562,1763.8787877,4177.87878746,2847.75757547,4316.96969654,1376.48484835,4858.39393891,2942.54545425,4111.42424201,57.6969696912,4428.2424238,12.3636363624,4214.45454503,12.3636363624,4842.93939346,12.3636363624,4463.78787834,3787.39393902,42.0,42.0,?
2017-06-01 17:29:30.449333,4539.51515106,8.2424242416,4224.24242382,8.2424242416,3939.87878748,226.666666644,3790.99999962,251.393939369,4214.96969655,2810.66666639,4430.30302986,1763.8787877,4166.54545413,2847.75757547,4317.48484805,1376.48484835,4867.66666618,2942.54545425,4115.54545413,57.6969696912,4427.72727228,12.3636363624,4214.96969655,12.3636363624,4839.84848436,12.3636363624,4460.69696925,3787.39393902,42.0,42.0,?
2017-06-01 17:29:30.458227,4535.90909046,8.2424242416,4222.69696927,8.2424242416,3923.393939,226.666666644,3798.72727235,251.393939369,4198.48484806,2810.66666639,4425.66666622,1763.8787877,4154.18181777,2847.75757547,4305.12121169,1376.48484835,4852.21212073,2942.54545425,4104.72727232,57.6969696912,4425.66666622,12.3636363624,4210.84848443,12.3636363624,4836.24242376,12.3636363624,4444.21212077,3787.39393902,42.0,42.0,?
2017-06-01 17:29:30.465211,4539.51515106,8.2424242416,4224.24242382,8.2424242416,3936.78787839,226.666666644,3781.21212083,251.393939369,4231.96969655,2810.66666639,4446.78787834,1763.8787877,4173.24242383,2847.75757547,4329.84848442,1376.48484835,4868.69696921,2942.54545425,4118.63636322,57.6969696912,4430.30302986,12.3636363624,4214.96969655,12.3636363624,4841.39393891,12.3636363624,4450.90909046,3787.39393902,42.0,42.0,?
2017-06-01 17:29:30.473009,4542.09090864,8.2424242416,4225.27272685,8.2424242416,3943.99999961,226.666666644,3783.78787841,251.393939369,4242.27272685,2810.66666639,4453.99999955,1763.8787877,4188.69696928,2847.75757547,4339.6363632,1376.48484835,4886.21212072,2942.54545425,4129.45454504,57.6969696912,4429.27272683,12.3636363624,4219.09090867,12.3636363624,4839.33333285,12.3636363624,4458.12121168,3787.39393902,42.0,42.0,?
2017-06-01 17:29:30.480396,4537.454545,8.2424242416,4222.69696927,8.2424242416,3931.12121173,226.666666644,3805.93939356,251.393939369,4219.60606018,2810.66666639,4444.72727228,1763.8787877,4185.60606019,2847.75757547,4322.12121169,1376.48484835,4867.66666618,2942.54545425,4121.2121208,57.6969696912,4428.75757531,12.3636363624,4215.99999958,12.3636363624,4839.84848436,12.3636363624,4452.45454501,3787.39393902,42.0,42.0,?
2017-06-01 17:29:30.488404,4541.06060561,8.2424242416,4225.27272685,8.2424242416,3918.24242385,226.666666644,3802.84848447,251.393939369,4230.93939352,2810.66666639,4452.96969652,1763.8787877,4181.99999958,2847.75757547,4319.0303026,1376.48484835,4844.484848,2942.54545425,4105.75757535,57.6969696912,4428.2424238,12.3636363624,4210.84848443,12.3636363624,4839.33333285,12.3636363624,4443.69696925,3787.39393902,42.0,42.0,?
2017-06-01 17:29:30.495922,4540.03030258,8.2424242416,4226.8181814,8.2424242416,3912.57575718,226.666666644,3790.48484811,251.393939369,4248.96969654,2810.66666639,4460.18181774,1763.8787877,4173.75757534,2847.75757547,4309.75757533,1376.48484835,4834.1818177,2942.54545425,4082.57575717,57.6969696912,4428.75757531,12.3636363624,4207.24242382,12.3636363624,4836.24242376,12.3636363624,4431.33333289,3787.39393902,42.0,42.0,?
2017-06-01 17:29:30.503383,4540.03030258,8.2424242416,4225.27272685,8.2424242416,3915.66666628,226.666666644,3792.54545417,251.393939369,4239.18181776,2810.66666639,4450.39393895,1763.8787877,4167.06060564,2847.75757547,4303.57575715,1376.48484835,4823.36363588,2942.54545425,4066.6060602,57.6969696912,4430.81818138,12.3636363624,4208.78787837,12.3636363624,4842.93939346,12.3636363624,4428.75757531,3787.39393902,42.0,42.0,?
2017-06-01 17:29:30.512275,4542.09090864,8.2424242416,4224.24242382,8.2424242416,3917.21212082,226.666666644,3801.81818144,251.393939369,4222.69696927,2810.66666639,4442.66666622,1763.8787877,4173.24242383,2847.75757547,4309.24242381,1376.48484835,4821.30302982,2942.54545425,4065.57575717,57.6969696912,4426.69696925,12.3636363624,4209.8181814,12.3636363624,4840.87878739,12.3636363624,4436.99999956,3787.39393902,42.0,42.0,?
2017-06-01 17:29:30.519387,4538.99999955,8.2424242416,4223.7272723,8.2424242416,3918.75757537,226.666666644,3813.15151477,251.393939369,4218.57575715,2810.66666639,4445.2424238,1763.8787877,4181.48484807,2847.75757547,4304.60606018,1376.48484835,4822.33333285,2942.54545425,4064.03030262,57.6969696912,4429.27272683,12.3636363624,4209.8181814,12.3636363624,4838.30302982,12.3636363624,4442.15151471,3787.39393902,42.0,42.0,?
2017-06-01 17:29:30.529301,4541.06060561,8.2424242416,4224.75757534,8.2424242416,3932.66666627,226.666666644,3816.75757538,251.393939369,4236.09090867,2810.66666639,4454.51515107,1763.8787877,4189.72727231,2847.75757547,4319.0303026,1376.48484835,4835.21212073,2942.54545425,4070.72727232,57.6969696912,4431.84848441,12.3636363624,4210.33333291,12.3636363624,4841.39393891,12.3636363624,4446.27272683,3787.39393902,42.0,42.0,?
2017-06-01 17:29:30.535705,4540.03030258,8.2424242416,4221.66666624,8.2424242416,3949.15151476,226.666666644,3812.12121174,251.393939369,4253.09090867,2810.66666639,4457.09090865,1763.8787877,4201.57575716,2847.75757547,4357.66666623,1376.48484835,4889.30302981,2942.54545425,4097.51515111,57.6969696912,4426.18181774,12.3636363624,4211.36363594,12.3636363624,4836.75757527,12.3636363624,4457.09090865,3787.39393902,42.0,42.0,?
2017-06-01 17:29:30.543540,4538.99999955,8.2424242416,4221.66666624,8.2424242416,3952.24242385,226.666666644,3814.69696932,251.393939369,4242.78787836,2810.66666639,4446.78787834,1763.8787877,4198.48484806,2847.75757547,4353.03030259,1376.48484835,4923.30302981,2942.54545425,4116.57575716,57.6969696912,4427.72727228,12.3636363624,4214.45454503,12.3636363624,4839.84848436,12.3636363624,4463.78787834,3787.39393902,42.0,42.0,?
2017-06-01 17:29:30.550756,4538.48484803,8.2424242416,4224.24242382,8.2424242416,3952.75757536,226.666666644,3815.72727235,251.393939369,4241.24242382,2810.66666639,4450.90909046,1763.8787877,4185.60606019,2847.75757547,4324.69696926,1376.48484835,4885.69696921,2942.54545425,4120.69696928,57.6969696912,4426.69696925,12.3636363624,4214.96969655,12.3636363624,4840.87878739,12.3636363624,4462.2424238,3787.39393902,42.0,42.0,?
2017-06-01 17:29:30.560716,4535.39393894,8.2424242416,4222.18181776,8.2424242416,3949.66666627,226.666666644,3802.33333295,251.393939369,4252.06060564,2810.66666639,4463.27272683,1763.8787877,4184.06060564,2847.75757547,4329.3333329,1376.48484835,4864.57575709,2942.54545425,4130.48484807,57.6969696912,4425.66666622,12.3636363624,4215.48484806,12.3636363624,4838.81818133,12.3636363624,4454.51515107,3787.39393902,42.0,42.0,?
2017-06-01 17:29:30.567143,4540.54545409,8.2424242416,4224.75757534,8.2424242416,3931.63636324,226.666666644,3792.54545417,251.393939369,4235.06060564,2810.66666639,4450.39393895,1763.8787877,4177.36363595,2847.75757547,4332.42424199,1376.48484835,4885.69696921,2942.54545425,4124.81818141,57.6969696912,4427.21212077,12.3636363624,4212.39393897,12.3636363624,4838.81818133,12.3636363624,4436.99999956,3787.39393902,42.0,42.0,?
2017-06-01 17:29:30.574433,4539.51515106,8.2424242416,4224.75757534,8.2424242416,3933.18181779,226.666666644,3812.12121174,251.393939369,4225.27272685,2810.66666639,4444.21212077,1763.8787877,4178.39393898,2847.75757547,4320.57575714,1376.48484835,4898.06060557,2942.54545425,4123.78787838,57.6969696912,4426.69696925,12.3636363624,4210.33333291,12.3636363624,4837.27272679,12.3636363624,4442.66666622,3787.39393902,42.0,42.0,?
2017-06-01 17:29:30.583736,4536.42424197,8.2424242416,4221.15151473,8.2424242416,3947.60606021,226.666666644,3826.54545416,251.393939369,4238.15151473,2810.66666639,4460.69696925,1763.8787877,4197.96969655,2847.75757547,4309.75757533,1376.48484835,4883.63636315,2942.54545425,4139.24242383,57.6969696912,4430.30302986,12.3636363624,4213.93939352,12.3636363624,4840.87878739,12.3636363624,4466.36363592,3787.39393902,42.0,42.0,?
2017-06-01 17:29:30.590095,4541.06060561,8.2424242416,4222.69696927,8.2424242416,3942.96969658,226.666666644,3802.33333295,251.393939369,4243.81818139,2810.66666639,4463.78787834,1763.8787877,4203.63636322,2847.75757547,4316.96969654,1376.48484835,4852.21212073,2942.54545425,4127.39393898,57.6969696912,4427.21212077,12.3636363624,4215.99999958,12.3636363624,4838.81818133,12.3636363624,4466.36363592,3787.39393902,42.0,42.0,?
2017-06-01 17:29:30.599261,4537.96969652,8.2424242416,4222.18181776,8.2424242416,3937.81818142,226.666666644,3793.5757572,251.393939369,4255.66666624,2810.66666639,4463.27272683,1763.8787877,4197.96969655,2847.75757547,4347.87878744,1376.48484835,4851.1818177,2942.54545425,4109.87878747,57.6969696912,4425.66666622,12.3636363624,4214.96969655,12.3636363624,4836.24242376,12.3636363624,4459.66666622,3787.39393902,42.0,42.0,?
2017-06-01 17:29:30.605890,4540.03030258,8.2424242416,4221.66666624,8.2424242416,3933.18181779,226.666666644,3820.8787875,251.393939369,4259.27272685,2810.66666639,4464.30302986,1763.8787877,4196.424242,2847.75757547,4351.48484805,1376.48484835,4872.30302982,2942.54545425,4113.99999959,57.6969696912,4428.2424238,12.3636363624,4213.93939352,12.3636363624,4839.33333285,12.3636363624,4460.18181774,3787.39393902,42.0,42.0,?
2017-06-01 17:29:30.615157,4540.03030258,8.2424242416,4222.69696927,8.2424242416,3926.48484809,226.666666644,3831.1818178,251.393939369,4243.30302988,2810.66666639,4456.06060561,1763.8787877,4194.36363594,2847.75757547,4325.21212078,1376.48484835,4878.99999951,2942.54545425,4111.42424201,57.6969696912,4428.2424238,12.3636363624,4211.87878746,12.3636363624,4837.27272679,12.3636363624,4458.12121168,3787.39393902,42.0,42.0,?
2017-06-01 17:29:30.621514,4536.93939349,8.2424242416,4221.66666624,8.2424242416,3920.81818143,226.666666644,3806.45454507,251.393939369,4241.24242382,2810.66666639,4448.33333289,1763.8787877,4186.63636322,2847.75757547,4319.0303026,1376.48484835,4882.0909086,2942.54545425,4088.75757535,57.6969696912,4430.81818138,12.3636363624,4209.8181814,12.3636363624,4839.84848436,12.3636363624,4451.93939349,3787.39393902,42.0,42.0,?
2017-06-01 17:29:30.630538,4539.51515106,8.2424242416,4223.21212079,8.2424242416,3914.12121173,226.666666644,3788.42424205,251.393939369,4237.1212117,2810.66666639,4447.81818137,1763.8787877,4171.69696928,2847.75757547,4316.45454502,1376.48484835,4886.21212072,2942.54545425,4071.24242384,57.6969696912,4427.21212077,12.3636363624,4209.30302988,12.3636363624,4839.84848436,12.3636363624,4436.99999956,3787.39393902,42.0,42.0,?
2017-06-01 17:29:30.637267,4536.42424197,8.2424242416,4223.21212079,8.2424242416,3914.63636324,226.666666644,3799.75757538,251.393939369,4220.63636321,2810.66666639,4446.27272683,1763.8787877,4168.09090867,2847.75757547,4302.0303026,1376.48484835,4874.36363588,2942.54545425,4074.33333293,57.6969696912,4425.66666622,12.3636363624,4211.36363594,12.3636363624,4837.27272679,12.3636363624,4425.66666622,3787.39393902,42.0,42.0,?
2017-06-01 17:29:30.644332,4541.57575712,8.2424242416,4223.21212079,8.2424242416,3928.03030264,226.666666644,3809.54545416,251.393939369,4228.87878746,2810.66666639,4448.33333289,1763.8787877,4181.99999958,2847.75757547,4305.12121169,1376.48484835,4847.57575709,2942.54545425,4085.66666626,57.6969696912,4428.75757531,12.3636363624,4212.39393897,12.3636363624,4843.45454497,12.3636363624,4439.06060562,3787.39393902,42.0,42.0,?
2017-06-01 17:29:30.659221,4542.09090864,8.2424242416,4221.66666624,8.2424242416,3949.15151476,226.666666644,3809.54545416,251.393939369,4252.06060564,2810.66666639,4455.03030258,1763.8787877,4196.424242,2847.75757547,4330.87878745,1376.48484835,4841.90909042,2942.54545425,4099.57575717,57.6969696912,4424.12121168,12.3636363624,4209.30302988,12.3636363624,4840.87878739,12.3636363624,4457.60606016,3787.39393902,42.0,42.0,?
2017-06-01 17:29:30.664083,4536.93939349,8.2424242416,4220.63636321,8.2424242416,3945.03030264,226.666666644,3802.33333295,251.393939369,4247.424242,2810.66666639,4455.03030258,1763.8787877,4203.1212117,2847.75757547,4338.60606017,1376.48484835,4876.42424194,2942.54545425,4111.93939353,57.6969696912,4427.21212077,12.3636363624,4212.90909049,12.3636363624,4842.42424194,12.3636363624,4459.66666622,3787.39393902,42.0,42.0,?
2017-06-01 17:29:30.668409,4542.60606015,8.2424242416,4224.24242382,8.2424242416,3908.96969658,226.666666644,3796.15151477,251.393939369,4224.75757534,2810.66666639,4447.81818137,1763.8787877,4201.57575716,2847.75757547,4309.24242381,1376.48484835,4891.87878739,2942.54545425,4117.09090868,57.6969696912,4429.27272683,12.3636363624,4219.09090867,12.3636363624,4845.51515103,12.3636363624,4455.03030258,3787.39393902,42.0,42.0,?
2017-06-01 17:29:30.677493,4542.09090864,8.2424242416,4224.24242382,8.2424242416,3905.87878749,226.666666644,3813.66666629,251.393939369,4234.03030261,2810.66666639,4449.36363592,1763.8787877,4201.06060564,2847.75757547,4308.7272723,1376.48484835,4871.7878783,2942.54545425,4130.48484807,57.6969696912,4427.72727228,12.3636363624,4217.03030261,12.3636363624,4841.90909042,12.3636363624,4467.90909046,3787.39393902,42.0,42.0,?
2017-06-01 17:29:30.683571,4539.51515106,8.2424242416,4224.75757534,8.2424242416,3939.36363597,226.666666644,3836.84848446,251.393939369,4270.60606018,2810.66666639,4469.45454501,1763.8787877,4208.27272685,2847.75757547,4352.51515108,1376.48484835,4901.66666618,2942.54545425,4155.2121208,57.6969696912,4429.27272683,12.3636363624,4213.93939352,12.3636363624,4842.93939346,12.3636363624,4488.51515107,3787.39393902,42.0,42.0,?
2017-06-01 17:29:30.691425,4539.51515106,8.2424242416,4225.27272685,8.2424242416,3942.45454506,226.666666644,3837.36363598,251.393939369,4279.87878745,2810.66666639,4479.75757531,1763.8787877,4211.36363594,2847.75757547,4361.78787835,1376.48484835,4942.87878738,2942.54545425,4157.78787837,57.6969696912,4426.18181774,12.3636363624,4213.424242,12.3636363624,4839.84848436,12.3636363624,4484.39393895,3787.39393902,42.0,42.0,?
2017-06-01 17:29:30.701341,4539.51515106,8.2424242416,4223.21212079,8.2424242416,3929.06060567,226.666666644,3831.1818178,251.393939369,4255.66666624,2810.66666639,4463.27272683,1763.8787877,4197.45454503,2847.75757547,4328.81818139,1376.48484835,4898.57575709,2942.54545425,4136.66666625,57.6969696912,4427.72727228,12.3636363624,4213.93939352,12.3636363624,4840.87878739,12.3636363624,4467.39393895,3787.39393902,42.0,42.0,?
2017-06-01 17:29:30.707948,4543.63636318,8.2424242416,4224.24242382,8.2424242416,3944.51515112,226.666666644,3837.36363598,251.393939369,4248.45454503,2810.66666639,4451.42424198,1763.8787877,4189.72727231,2847.75757547,4326.75757532,1376.48484835,4870.75757527,2942.54545425,4130.99999959,57.6969696912,4428.2424238,12.3636363624,4214.96969655,12.3636363624,4842.93939346,12.3636363624,4471.51515107,3787.39393902,42.0,42.0,?
2017-06-01 17:29:30.716762,4537.96969652,8.2424242416,4222.69696927,8.2424242416,3966.66666627,226.666666644,3839.93939356,251.393939369,4268.54545412,2810.66666639,4468.42424198,1763.8787877,4210.84848443,2847.75757547,4358.18181775,1376.48484835,4935.66666617,2942.54545425,4156.75757534,57.6969696912,4425.66666622,12.3636363624,4214.96969655,12.3636363624,4839.33333285,12.3636363624,4493.66666622,3787.39393902,42.0,42.0,?
2017-06-01 17:29:30.723544,4537.96969652,8.2424242416,4223.7272723,12.3636363624,3960.9999996,226.666666644,3833.24242386,251.393939369,4283.48484806,2810.66666639,4487.48484804,1763.8787877,4230.93939352,2847.75757547,4364.36363593,1376.48484835,4962.96969647,2942.54545425,4178.90909049,57.6969696912,4429.27272683,12.3636363624,4217.54545412,12.3636363624,4841.39393891,12.3636363624,4502.42424197,3787.39393902,42.0,42.0,?
2017-06-01 17:29:30.731948,4541.57575712,8.2424242416,4225.27272685,12.3636363624,3935.24242385,226.666666644,3835.81818143,251.393939369,4275.75757533,2810.66666639,4478.72727228,1763.8787877,4222.69696927,2847.75757547,4350.96969653,1376.48484835,4914.03030254,2942.54545425,4162.93939352,57.6969696912,4426.18181774,12.3636363624,4217.54545412,12.3636363624,4837.27272679,12.3636363624,4489.03030258,3783.27272689,42.0,42.0,?
2017-06-01 17:29:30.739367,4537.96969652,8.2424242416,4222.18181776,12.3636363624,3909.48484809,107.151515141,3834.27272689,251.393939369,4251.03030261,2810.66666639,4462.2424238,1763.8787877,4209.8181814,2847.75757547,4341.18181775,1376.48484835,4886.72727224,2942.54545425,4127.39393898,57.6969696912,4428.2424238,12.3636363624,4213.93939352,12.3636363624,4837.27272679,12.3636363624,4466.36363592,3783.27272689,42.0,42.0,?
2017-06-01 17:29:30.746968,4539.51515106,8.2424242416,4223.7272723,12.3636363624,3926.48484809,107.151515141,3822.42424204,255.51515149,4244.33333291,2810.66666639,4466.36363592,1763.8787877,4218.06060564,2847.75757547,4336.0303026,1376.48484835,4895.99999951,2942.54545425,4115.54545413,57.6969696912,4429.27272683,12.3636363624,4211.87878746,12.3636363624,4841.90909042,12.3636363624,4457.60606016,3783.27272689,42.0,42.0,?
2017-06-01 17:29:30.754142,4541.06060561,8.2424242416,4224.24242382,12.3636363624,3967.6969693,107.151515141,3834.7878784,255.51515149,4275.24242381,2802.42424214,4479.75757531,1763.8787877,4234.03030261,2847.75757547,4341.69696926,1376.48484835,4903.72727224,2942.54545425,4137.69696928,57.6969696912,4425.66666622,12.3636363624,4212.90909049,12.3636363624,4837.27272679,12.3636363624,4473.06060561,3783.27272689,42.0,42.0,?
2017-06-01 17:29:30.761976,4541.57575712,8.2424242416,4224.24242382,12.3636363624,3917.72727234,107.151515141,3858.4848481,255.51515149,4298.93939351,2802.42424214,4485.42424198,1776.24242406,4234.03030261,2847.75757547,4360.75757532,1376.48484835,4906.30302981,2942.54545425,4160.36363595,57.6969696912,4430.30302986,12.3636363624,4215.48484806,12.3636363624,4840.87878739,12.3636363624,4485.42424198,3783.27272689,42.0,42.0,?
2017-06-01 17:29:30.772934,4543.63636318,8.2424242416,4226.30302988,12.3636363624,3813.15151477,107.151515141,3862.60606022,255.51515149,4285.0303026,2802.42424214,4490.06060561,1776.24242406,4235.06060564,2835.39393911,4370.54545411,1376.48484835,4932.06060557,2942.54545425,4166.54545413,57.6969696912,4427.21212077,12.3636363624,4215.99999958,12.3636363624,4842.42424194,12.3636363624,4482.33333289,3783.27272689,42.0,42.0,?
2017-06-01 17:29:30.777386,4538.99999955,8.2424242416,4223.21212079,12.3636363624,3839.93939356,107.151515141,3860.54545416,255.51515149,4268.54545412,2802.42424214,4491.09090864,1776.24242406,4247.424242,2835.39393911,4364.36363593,1376.48484835,4967.09090859,2942.54545425,4170.66666625,57.6969696912,4425.15151471,12.3636363624,4213.93939352,12.3636363624,4840.36363588,12.3636363624,4487.99999955,3783.27272689,42.0,42.0,?
2017-06-01 17:29:30.786457,4540.54545409,8.2424242416,4224.24242382,12.3636363624,4026.93939354,107.151515141,3857.45454507,255.51515149,4270.60606018,2802.42424214,4480.78787834,1776.24242406,4245.36363594,2835.39393911,4367.45454502,1376.48484835,4961.42424193,2991.9999997,4178.39393898,57.6969696912,4428.2424238,12.3636363624,4217.03030261,12.3636363624,4841.90909042,12.3636363624,4505.51515106,3783.27272689,42.0,42.0,?
2017-06-01 17:29:30.794331,4538.99999955,8.2424242416,4224.75757534,12.3636363624,4054.24242384,107.151515141,3851.7878784,255.51515149,4277.81818139,2802.42424214,4478.21212076,1776.24242406,4234.03030261,2835.39393911,4376.72727229,1376.48484835,4932.06060557,2991.9999997,4189.21212079,53.5757575704,4427.21212077,12.3636363624,4219.09090867,12.3636363624,4839.84848436,12.3636363624,4519.93939349,3783.27272689,42.0,42.0,?
2017-06-01 17:29:30.801103,4536.93939349,8.2424242416,4223.7272723,12.3636363624,3795.63636326,107.151515141,3853.84848446,255.51515149,4282.96969654,2802.42424214,4485.93939349,1776.24242406,4230.93939352,2835.39393911,4370.54545411,1376.48484835,4933.0909086,2991.9999997,4193.84848443,53.5757575704,4430.81818138,0.0,4218.57575715,12.3636363624,4842.42424194,12.3636363624,4521.99999955,3783.27272689,42.0,42.0,?
2017-06-01 17:29:30.808428,4539.51515106,8.2424242416,4225.27272685,12.3636363624,3689.51515115,107.151515141,3851.7878784,255.51515149,4272.66666624,2802.42424214,4476.66666622,1776.24242406,4225.27272685,2835.39393911,4352.51515108,1376.48484835,4951.12121163,2991.9999997,4187.15151473,53.5757575704,4429.78787834,0.0,4217.03030261,8.2424242416,4838.30302982,12.3636363624,4509.63636319,3783.27272689,42.0,42.0,?
2017-06-01 17:29:30.818110,4535.39393894,8.2424242416,4223.7272723,12.3636363624,3917.21212082,107.151515141,3842.51515113,255.51515149,4260.81818139,2802.42424214,4462.75757531,1776.24242406,4224.75757534,2835.39393911,4349.9393935,1376.48484835,4945.45454496,2991.9999997,4190.75757534,53.5757575704,4425.66666622,0.0,4217.54545412,8.2424242416,4834.1818177,12.3636363624,4509.12121167,3783.27272689,42.0,42.0,?
2017-06-01 17:29:30.824447,4539.51515106,8.2424242416,4224.75757534,12.3636363624,3941.42424203,107.151515141,3844.06060568,255.51515149,4266.99999957,2802.42424214,4470.48484804,1776.24242406,4238.15151473,2835.39393911,4364.87878744,1376.48484835,4933.60606011,2991.9999997,4204.66666625,57.6969696912,4425.66666622,0.0,4220.63636321,8.2424242416,4840.87878739,12.3636363624,4525.09090864,3783.27272689,42.0,42.0,?
2017-06-01 17:29:30.832305,4541.06060561,8.2424242416,4224.24242382,12.3636363624,3439.66666632,107.151515141,3848.1818178,255.51515149,4271.12121169,2802.42424214,4483.36363592,1776.24242406,4247.93939351,2835.39393911,4375.69696926,1376.48484835,4950.0909086,2991.9999997,4206.72727231,57.6969696912,4425.15151471,12.3636363624,4219.09090867,8.2424242416,4840.36363588,12.3636363624,4532.30302985,3783.27272689,42.0,42.0,?
2017-06-01 17:29:30.840876,4537.96969652,8.2424242416,4221.66666624,12.3636363624,3144.48484817,107.151515141,3836.84848446,255.51515149,4264.424242,2802.42424214,4482.8484844,1776.24242406,4251.54545412,2835.39393911,4371.57575714,1376.48484835,4975.84848435,2991.9999997,4197.45454503,57.6969696912,4427.72727228,12.3636363624,4216.51515109,8.2424242416,4841.90909042,12.3636363624,4522.51515106,3783.27272689,42.0,42.0,?
2017-06-01 17:29:30.848562,4541.57575712,8.2424242416,4224.24242382,12.3636363624,3565.87878752,107.151515141,3831.1818178,255.51515149,4263.90909048,2802.42424214,4479.75757531,1776.24242406,4250.51515109,2835.39393911,4360.75757532,1376.48484835,4958.84848435,2991.9999997,4183.54545413,57.6969696912,4426.69696925,12.3636363624,4215.48484806,8.2424242416,4842.42424194,12.3636363624,4507.06060561,3783.27272689,42.0,42.0,?
2017-06-01 17:29:30.856065,4538.99999955,8.2424242416,4225.27272685,12.3636363624,4007.36363596,107.151515141,3846.12121174,255.51515149,4273.69696927,2802.42424214,4483.36363592,1776.24242406,4243.30302988,2835.39393911,4355.60606017,1376.48484835,4931.54545405,2991.9999997,4178.90909049,57.6969696912,4427.72727228,12.3636363624,4215.99999958,8.2424242416,4839.84848436,12.3636363624,4500.87878743,3783.27272689,42.0,42.0,?
2017-06-01 17:29:30.863343,4540.03030258,8.2424242416,4225.78787837,12.3636363624,3869.81818143,107.151515141,3860.03030264,255.51515149,4276.78787836,2802.42424214,4482.33333289,1776.24242406,4231.45454503,2835.39393911,4354.06060563,1376.48484835,4929.48484799,2991.9999997,4180.45454504,57.6969696912,4430.30302986,12.3636363624,4215.48484806,8.2424242416,4842.93939346,12.3636363624,4500.87878743,3783.27272689,42.0,42.0,?
2017-06-01 17:29:30.873473,4540.54545409,8.2424242416,4225.27272685,12.3636363624,3682.81818145,107.151515141,3862.0909087,255.51515149,4278.33333291,2802.42424214,4479.75757531,1776.24242406,4229.39393897,2835.39393911,4365.90909047,1376.48484835,4925.87878739,2991.9999997,4174.78787837,57.6969696912,4425.15151471,12.3636363624,4212.90909049,8.2424242416,4838.81818133,12.3636363624,4500.36363591,3783.27272689,42.0,42.0,?
2017-06-01 17:29:30.879411,4537.454545,8.2424242416,4223.21212079,12.3636363624,3876.51515113,107.151515141,3857.45454507,255.51515149,4275.24242381,2802.42424214,4484.90909046,1776.24242406,4233.51515109,2835.39393911,4373.12121168,1376.48484835,4921.24242375,2991.9999997,4160.87878746,57.6969696912,4427.72727228,12.3636363624,4216.51515109,8.2424242416,4839.33333285,12.3636363624,4492.12121167,3783.27272689,42.0,42.0,?
2017-06-01 17:29:30.888135,4540.54545409,8.2424242416,4223.7272723,12.3636363624,3935.75757536,107.151515141,3843.03030265,255.51515149,4258.24242382,2802.42424214,4480.27272682,1776.24242406,4226.30302988,2835.39393911,4349.9393935,1376.48484835,4939.78787829,2991.9999997,4150.06060565,57.6969696912,4428.75757531,12.3636363624,4219.09090867,8.2424242416,4842.42424194,12.3636363624,4478.21212076,3783.27272689,42.0,42.0,?
2017-06-01 17:29:30.894948,4536.93939349,8.2424242416,4221.15151473,12.3636363624,3796.66666629,107.151515141,3851.7878784,255.51515149,4262.36363594,2802.42424214,4465.33333289,1776.24242406,4227.33333291,2835.39393911,4341.69696926,1376.48484835,4947.51515102,2991.9999997,4167.57575716,57.6969696912,4426.69696925,12.3636363624,4216.51515109,8.2424242416,4837.7878783,12.3636363624,4490.06060561,3783.27272689,42.0,42.0,?
2017-06-01 17:29:30.904689,4537.96969652,8.2424242416,4222.18181776,12.3636363624,3707.03030266,107.151515141,3872.90909052,255.51515149,4277.30302988,2802.42424214,4469.45454501,1776.24242406,4230.424242,2835.39393911,4366.42424199,1376.48484835,4909.3939389,2991.9999997,4186.1212117,57.6969696912,4429.78787834,12.3636363624,4214.96969655,8.2424242416,4839.84848436,12.3636363624,4515.30302985,3783.27272689,42.0,42.0,?
2017-06-01 17:29:30.913314,4541.06060561,8.2424242416,4225.27272685,12.3636363624,3507.1515148,107.151515141,3858.4848481,255.51515149,4266.99999957,2802.42424214,4483.87878743,1776.24242406,4218.57575715,2835.39393911,4375.18181774,1376.48484835,4908.36363587,2991.9999997,4175.8181814,57.6969696912,4427.72727228,12.3636363624,4212.39393897,8.2424242416,4841.39393891,12.3636363624,4516.8484844,3783.27272689,42.0,42.0,?
2017-06-01 17:29:30.918977,4538.99999955,8.2424242416,4224.24242382,12.3636363624,3475.72727238,107.151515141,3847.15151477,255.51515149,4272.66666624,2802.42424214,4485.93939349,1776.24242406,4231.96969655,2835.39393911,4372.09090865,1376.48484835,4979.96969647,2991.9999997,4183.03030261,57.6969696912,4428.75757531,12.3636363624,4214.96969655,8.2424242416,4843.45454497,12.3636363624,4516.8484844,3783.27272689,42.0,42.0,?
2017-06-01 17:29:30.928034,4541.57575712,8.2424242416,4223.7272723,12.3636363624,3817.78787841,107.151515141,3871.36363598,255.51515149,4300.48484805,2802.42424214,4487.48484804,1776.24242406,4258.24242382,2835.39393911,4379.81818138,1376.48484835,4993.36363586,2991.9999997,4215.48484806,57.6969696912,4428.75757531,12.3636363624,4221.66666624,8.2424242416,4842.42424194,12.3636363624,4531.27272682,3783.27272689,42.0,42.0,?
2017-06-01 17:29:30.934532,4538.48484803,8.2424242416,4222.69696927,12.3636363624,3932.15151476,107.151515141,3881.15151476,255.51515149,4299.45454502,2802.42424214,4496.75757531,1776.24242406,4259.27272685,2835.39393911,4385.99999956,1376.48484835,4945.96969648,2991.9999997,4225.27272685,57.6969696912,4426.69696925,12.3636363624,4221.66666624,8.2424242416,4837.7878783,12.3636363624,4535.90909046,3783.27272689,42.0,42.0,?
2017-06-01 17:29:30.943759,4540.03030258,8.2424242416,4225.27272685,12.3636363624,3723.51515114,107.151515141,3863.12121173,255.51515149,4284.51515109,2802.42424214,4500.87878743,1776.24242406,4255.66666624,2835.39393911,4388.57575714,1376.48484835,4955.75757526,2991.9999997,4204.15151473,57.6969696912,4429.78787834,12.3636363624,4217.54545412,8.2424242416,4840.36363588,12.3636363624,4524.06060561,3783.27272689,42.0,42.0,?
2017-06-01 17:29:30.950199,4543.63636318,8.2424242416,4227.84848443,12.3636363624,3722.48484811,107.151515141,3856.93939355,255.51515149,4287.60606018,2802.42424214,4494.18181773,1776.24242406,4254.63636321,2835.39393911,4391.66666623,1376.48484835,4990.78787829,2991.9999997,4185.09090867,57.6969696912,4425.66666622,12.3636363624,4214.96969655,8.2424242416,4836.24242376,12.3636363624,4515.81818137,3783.27272689,42.0,42.0,?
2017-06-01 17:29:30.957356,4538.99999955,8.2424242416,4223.7272723,12.3636363624,3770.90909053,107.151515141,3868.27272689,255.51515149,4279.87878745,2802.42424214,4481.81818137,1776.24242406,4240.7272723,2835.39393911,4383.9393935,1376.48484835,4985.12121162,2991.9999997,4183.03030261,57.6969696912,4426.69696925,12.3636363624,4215.48484806,8.2424242416,4836.75757527,12.3636363624,4515.81818137,3783.27272689,42.0,42.0,?
2017-06-01 17:29:30.967063,4542.09090864,8.2424242416,4223.7272723,12.3636363624,3711.6666663,107.151515141,3868.27272689,255.51515149,4264.93939351,2802.42424214,4479.24242379,1776.24242406,4237.63636321,2835.39393911,4365.90909047,1376.48484835,4962.45454496,2991.9999997,4192.8181814,57.6969696912,4430.30302986,12.3636363624,4218.06060564,8.2424242416,4840.36363588,12.3636363624,4518.90909046,3783.27272689,42.0,42.0,?
2017-06-01 17:29:30.972482,4539.51515106,8.2424242416,4224.75757534,12.3636363624,3762.15151478,107.151515141,3856.42424204,255.51515149,4272.66666624,2802.42424214,4491.60606016,1776.24242406,4245.87878745,2835.39393911,4364.36363593,1376.48484835,4942.36363587,2991.9999997,4196.424242,57.6969696912,4426.18181774,12.3636363624,4216.51515109,8.2424242416,4836.75757527,12.3636363624,4517.87878743,3783.27272689,42.0,42.0,?
2017-06-01 17:29:30.980408,4536.93939349,8.2424242416,4223.21212079,12.3636363624,3742.06060569,107.151515141,3849.21212083,255.51515149,4280.39393897,2802.42424214,4495.21212076,1776.24242406,4236.60606018,2835.39393911,4376.21212077,1376.48484835,4935.66666617,2991.9999997,4184.57575716,57.6969696912,4427.72727228,12.3636363624,4215.48484806,8.2424242416,4840.36363588,12.3636363624,4510.1515147,3783.27272689,42.0,42.0,?
2017-06-01 17:29:30.988768,4540.03030258,8.2424242416,4223.21212079,12.3636363624,3588.54545419,107.151515141,3858.4848481,255.51515149,4282.96969654,2802.42424214,4490.57575713,1776.24242406,4234.54545412,2835.39393911,4382.90909047,1376.48484835,4963.48484799,2991.9999997,4184.06060564,57.6969696912,4427.72727228,12.3636363624,4217.03030261,8.2424242416,4836.24242376,12.3636363624,4506.54545409,3783.27272689,42.0,42.0,?
2017-06-01 17:29:30.996431,4537.454545,8.2424242416,4223.21212079,12.3636363624,3626.15151479,107.151515141,3868.27272689,255.51515149,4288.12121169,2802.42424214,4494.18181773,1776.24242406,4258.75757533,2835.39393911,4389.60606017,1376.48484835,4992.84848435,2991.9999997,4204.66666625,57.6969696912,4427.72727228,12.3636363624,4220.63636321,8.2424242416,4834.69696921,12.3636363624,4514.78787834,3783.27272689,42.0,42.0,?
2017-06-01 17:29:31.005663,4541.57575712,8.2424242416,4224.75757534,12.3636363624,3826.03030265,107.151515141,3854.87878749,255.51515149,4281.424242,2802.42424214,4498.81818137,1776.24242406,4271.63636321,2835.39393911,4392.18181774,1376.48484835,4984.09090859,2991.9999997,4216.51515109,57.6969696912,4429.27272683,12.3636363624,4222.18181776,8.2424242416,4844.484848,12.3636363624,4521.99999955,3783.27272689,42.0,42.0,?
2017-06-01 17:29:31.013353,4541.57575712,8.2424242416,4223.7272723,12.3636363624,3927.51515112,107.151515141,3842.51515113,255.51515149,4276.78787836,2802.42424214,4496.75757531,1776.24242406,4265.96969654,2835.39393911,4389.60606017,1376.48484835,4986.15151465,2991.9999997,4218.57575715,57.6969696912,4428.2424238,12.3636363624,4218.06060564,8.2424242416,4841.39393891,12.3636363624,4529.21212076,3783.27272689,42.0,42.0,?
2017-06-01 17:29:31.020490,4536.93939349,8.2424242416,4222.69696927,12.3636363624,3929.57575718,107.151515141,3847.66666628,255.51515149,4291.21212078,2802.42424214,4494.69696925,1776.24242406,4271.63636321,2835.39393911,4391.15151471,1376.48484835,4999.03030253,2991.9999997,4225.27272685,57.6969696912,4430.30302986,12.3636363624,4219.60606018,8.2424242416,4839.84848436,12.3636363624,4540.54545409,3783.27272689,42.0,42.0,?
2017-06-01 17:29:31.027862,4538.99999955,8.2424242416,4225.27272685,12.3636363624,3923.90909052,107.151515141,3854.87878749,255.51515149,4302.0303026,2802.42424214,4499.33333288,1776.24242406,4280.90909048,2835.39393911,4404.03030259,1376.48484835,4972.24242375,2991.9999997,4226.8181814,57.6969696912,4426.18181774,12.3636363624,4221.15151473,8.2424242416,4842.93939346,12.3636363624,4545.69696924,3783.27272689,42.0,42.0,?
2017-06-01 17:29:31.036499,4538.99999955,8.2424242416,4223.21212079,12.3636363624,3921.33333294,107.151515141,3864.15151477,255.51515149,4286.06060563,2802.42424214,4496.24242379,1776.24242406,4269.57575715,2835.39393911,4406.09090865,1376.48484835,4948.03030254,2991.9999997,4212.90909049,57.6969696912,4425.15151471,12.3636363624,4217.03030261,8.2424242416,4841.90909042,12.3636363624,4531.27272682,3783.27272689,42.0,42.0,?
2017-06-01 17:29:31.044042,4540.54545409,8.2424242416,4223.21212079,12.3636363624,3886.30302991,107.151515141,3864.15151477,255.51515149,4266.48484806,2802.42424214,4480.27272682,1776.24242406,4248.96969654,2835.39393911,4376.21212077,1376.48484835,4964.51515102,2991.9999997,4189.21212079,57.6969696912,4428.75757531,12.3636363624,4214.96969655,8.2424242416,4842.42424194,12.3636363624,4501.39393894,3783.27272689,42.0,42.0,?
2017-06-01 17:29:31.053475,4539.51515106,8.2424242416,4223.7272723,12.3636363624,3865.69696931,107.151515141,3861.06060567,255.51515149,4276.78787836,2802.42424214,4480.78787834,1776.24242406,4248.45454503,2835.39393911,4360.75757532,1376.48484835,4975.33333284,2991.9999997,4179.93939352,57.6969696912,4426.18181774,12.3636363624,4215.99999958,8.2424242416,4840.36363588,12.3636363624,4485.93939349,3783.27272689,42.0,42.0,?
2017-06-01 17:29:31.058791,4539.51515106,8.2424242416,4223.21212079,12.3636363624,3876.51515113,107.151515141,3874.96969658,255.51515149,4296.87878745,2802.42424214,4496.75757531,1776.24242406,4250.51515109,2835.39393911,4375.69696926,1376.48484835,4962.96969647,2991.9999997,4186.1212117,57.6969696912,4428.2424238,12.3636363624,4218.06060564,8.2424242416,4842.93939346,12.3636363624,4496.24242379,3783.27272689,42.0,42.0,?
2017-06-01 17:29:31.066501,4544.1515147,8.2424242416,4226.30302988,12.3636363624,3866.72727234,107.151515141,3884.24242385,255.51515149,4293.27272684,2802.42424214,4490.57575713,1776.24242406,4241.24242382,2835.39393911,4376.21212077,1376.48484835,4958.33333284,2991.9999997,4189.72727231,57.6969696912,4426.69696925,12.3636363624,4219.60606018,8.2424242416,4840.87878739,12.3636363624,4514.78787834,3783.27272689,42.0,42.0,?
2017-06-01 17:29:31.074376,4540.54545409,8.2424242416,4224.24242382,12.3636363624,3853.84848446,107.151515141,3869.81818143,255.51515149,4283.99999957,2802.42424214,4478.72727228,1776.24242406,4242.27272685,2835.39393911,4370.03030259,1376.48484835,4966.57575708,2991.9999997,4197.45454503,57.6969696912,4426.18181774,12.3636363624,4219.60606018,8.2424242416,4835.72727224,12.3636363624,4532.81818136,3783.27272689,42.0,42.0,?
2017-06-01 17:29:31.084295,4540.54545409,8.2424242416,4224.24242382,12.3636363624,3848.1818178,107.151515141,3857.96969658,255.51515149,4287.60606018,2802.42424214,4489.5454541,1776.24242406,4250.51515109,2835.39393911,4379.30302987,1376.48484835,4972.75757526,2991.9999997,4204.15151473,57.6969696912,4431.84848441,12.3636363624,4219.09090867,8.2424242416,4840.87878739,12.3636363624,4543.63636318,3783.27272689,42.0,42.0,?
2017-06-01 17:29:31.090357,4541.06060561,8.2424242416,4226.8181814,12.3636363624,3845.60606022,107.151515141,3867.75757537,255.51515149,4291.21212078,2802.42424214,4498.81818137,1776.24242406,4252.57575715,2835.39393911,4383.9393935,1376.48484835,4971.21212072,2991.9999997,4207.75757534,57.6969696912,4427.72727228,12.3636363624,4219.09090867,8.2424242416,4839.33333285,12.3636363624,4548.78787833,3783.27272689,42.0,42.0,?
2017-06-01 17:29:31.098374,4537.96969652,8.2424242416,4222.69696927,12.3636363624,3849.21212083,107.151515141,3871.87878749,255.51515149,4292.24242381,2802.42424214,4487.99999955,1776.24242406,4262.36363594,2835.39393911,4388.06060562,1376.48484835,4960.90909041,2991.9999997,4215.99999958,57.6969696912,4426.69696925,12.3636363624,4222.18181776,8.2424242416,4840.36363588,12.3636363624,4558.57575712,3783.27272689,42.0,42.0,?
2017-06-01 17:29:31.105766,4541.57575712,8.2424242416,4222.18181776,12.3636363624,3872.39393901,107.151515141,3851.7878784,255.51515149,4294.81818139,2802.42424214,4494.18181773,1776.24242406,4282.45454503,2835.39393911,4404.03030259,1376.48484835,4960.90909041,2991.9999997,4226.30302988,57.6969696912,4427.21212077,12.3636363624,4221.15151473,8.2424242416,4842.42424194,12.3636363624,4566.30302985,3783.27272689,42.0,42.0,?
2017-06-01 17:29:31.114839,4538.48484803,8.2424242416,4222.18181776,12.3636363624,3918.75757537,107.151515141,3838.39393901,255.51515149,4286.57575715,2802.42424214,4511.18181773,1776.24242406,4290.18181775,2835.39393911,4400.42424198,1376.48484835,4990.27272677,2991.9999997,4231.45454503,57.6969696912,4427.72727228,12.3636363624,4217.54545412,8.2424242416,4839.84848436,12.3636363624,4566.81818136,3783.27272689,42.0,42.0,?
2017-06-01 17:29:31.124165,4536.93939349,8.2424242416,4223.7272723,12.3636363624,3942.96969658,107.151515141,3847.66666628,255.51515149,4275.24242381,2802.42424214,4501.39393894,1776.24242406,4278.84848442,2835.39393911,4382.90909047,1376.48484835,5010.36363586,2991.9999997,4223.7272723,57.6969696912,4431.84848441,12.3636363624,4218.06060564,8.2424242416,4842.42424194,12.3636363624,4557.54545409,3783.27272689,42.0,42.0,?
2017-06-01 17:29:31.132666,4540.03030258,8.2424242416,4225.27272685,12.3636363624,3927.51515112,107.151515141,3857.45454507,255.51515149,4280.90909048,2802.42424214,4481.81818137,1776.24242406,4263.90909048,2835.39393911,4388.06060562,1376.48484835,4984.60606011,2991.9999997,4207.75757534,57.6969696912,4426.69696925,12.3636363624,4218.06060564,8.2424242416,4838.81818133,12.3636363624,4541.57575712,3783.27272689,42.0,42.0,?
2017-06-01 17:29:31.138366,4538.48484803,8.2424242416,4222.69696927,12.3636363624,3914.63636324,107.151515141,3857.96969658,255.51515149,4289.66666624,2802.42424214,4480.27272682,1776.24242406,4256.18181776,2835.39393911,4394.2424238,1376.48484835,4970.18181768,2991.9999997,4202.09090867,57.6969696912,4427.21212077,12.3636363624,4219.09090867,8.2424242416,4839.33333285,12.3636363624,4531.27272682,3783.27272689,42.0,42.0,?
2017-06-01 17:29:31.144978,4542.60606015,8.2424242416,4223.7272723,12.3636363624,3909.48484809,107.151515141,3854.87878749,255.51515149,4278.33333291,2802.42424214,4481.81818137,1776.24242406,4239.69696927,2835.39393911,4371.06060562,1376.48484835,4973.27272678,2991.9999997,4193.84848443,57.6969696912,4429.27272683,12.3636363624,4217.54545412,8.2424242416,4841.90909042,12.3636363624,4519.93939349,3783.27272689,42.0,42.0,?
2017-06-01 17:29:31.154566,4539.51515106,8.2424242416,4223.7272723,12.3636363624,3902.7878784,107.151515141,3857.96969658,255.51515149,4269.06060563,2802.42424214,4474.60606016,1776.24242406,4222.18181776,2835.39393911,4353.54545411,1376.48484835,4941.84848435,2991.9999997,4174.78787837,57.6969696912,4427.21212077,12.3636363624,4213.93939352,8.2424242416,4837.27272679,12.3636363624,4501.90909046,3783.27272689,42.0,42.0,?
2017-06-01 17:29:31.160801,4536.42424197,8.2424242416,4223.21212079,12.3636363624,3907.42424203,107.151515141,3869.30302992,255.51515149,4281.93939351,2802.42424214,4475.12121167,1776.24242406,4226.8181814,2835.39393911,4363.3333329,1376.48484835,4928.96969648,2991.9999997,4171.69696928,57.6969696912,4429.78787834,12.3636363624,4215.48484806,8.2424242416,4840.36363588,12.3636363624,4493.66666622,3783.27272689,42.0,42.0,?
2017-06-01 17:29:31.168360,4539.51515106,8.2424242416,4222.69696927,12.3636363624,3920.30302991,107.151515141,3872.90909052,255.51515149,4295.84848442,2802.42424214,4486.45454501,1776.24242406,4238.66666624,2835.39393911,4373.12121168,1376.48484835,4969.15151465,2991.9999997,4181.48484807,57.6969696912,4427.72727228,12.3636363624,4218.57575715,8.2424242416,4839.33333285,12.3636363624,4499.8484844,3783.27272689,42.0,42.0,?
2017-06-01 17:29:31.176648,4537.96969652,8.2424242416,4222.69696927,12.3636363624,3927.51515112,107.151515141,3874.45454507,255.51515149,4292.75757533,2802.42424214,4491.60606016,1776.24242406,4245.87878745,2835.39393911,4372.09090865,1376.48484835,4982.54545405,2991.9999997,4187.15151473,57.6969696912,4429.27272683,12.3636363624,4217.54545412,8.2424242416,4837.7878783,12.3636363624,4510.1515147,3783.27272689,42.0,42.0,?
2017-06-01 17:29:31.185318,4542.09090864,8.2424242416,4226.8181814,12.3636363624,3926.48484809,107.151515141,3881.66666628,255.51515149,4286.57575715,2802.42424214,4490.06060561,1776.24242406,4254.1212117,2835.39393911,4368.48484805,1376.48484835,4948.03030254,2991.9999997,4188.69696928,57.6969696912,4429.78787834,12.3636363624,4217.03030261,8.2424242416,4842.42424194,12.3636363624,4518.39393894,3783.27272689,42.0,42.0,?
2017-06-01 17:29:31.191389,4540.54545409,8.2424242416,4224.75757534,12.3636363624,3929.57575718,107.151515141,3879.60606022,255.51515149,4302.54545412,2802.42424214,4498.81818137,1776.24242406,4269.57575715,2835.39393911,4380.84848441,1376.48484835,4938.24242375,2991.9999997,4201.06060564,57.6969696912,4425.15151471,12.3636363624,4218.06060564,8.2424242416,4839.33333285,12.3636363624,4536.93939349,3783.27272689,42.0,42.0,?
2017-06-01 17:29:31.199468,4538.48484803,8.2424242416,4222.69696927,12.3636363624,3937.30302991,107.151515141,3863.63636325,255.51515149,4315.42424199,2802.42424214,4513.75757531,1776.24242406,4282.96969654,2835.39393911,4402.99999956,1376.48484835,4961.42424193,2991.9999997,4215.99999958,57.6969696912,4428.75757531,12.3636363624,4220.1212117,8.2424242416,4841.90909042,12.3636363624,4555.48484803,3783.27272689,42.0,42.0,?
2017-06-01 17:29:31.209764,4541.57575712,8.2424242416,4225.78787837,12.3636363624,3937.81818142,107.151515141,3853.33333295,255.51515149,4296.87878745,2802.42424214,4513.24242379,1776.24242406,4282.96969654,2835.39393911,4401.96969653,1376.48484835,4970.18181768,2991.9999997,4218.57575715,57.6969696912,4428.75757531,12.3636363624,4220.63636321,8.2424242416,4842.93939346,12.3636363624,4553.42424197,3783.27272689,42.0,42.0,?
2017-06-01 17:29:31.215449,4536.42424197,8.2424242416,4224.24242382,12.3636363624,3940.393939,107.151515141,3864.15151477,255.51515149,4288.63636321,2802.42424214,4504.99999955,1776.24242406,4282.45454503,2835.39393911,4391.66666623,1376.48484835,4979.45454496,2991.9999997,4230.424242,57.6969696912,4427.21212077,12.3636363624,4221.15151473,8.2424242416,4840.87878739,12.3636363624,4553.93939348,3783.27272689,42.0,42.0,?
2017-06-01 17:29:31.223501,4537.96969652,0.0,4223.21212079,12.3636363624,3946.57575718,107.151515141,3877.54545416,255.51515149,4305.12121169,2802.42424214,4500.36363591,1776.24242406,4279.87878745,2835.39393911,4398.87878744,1376.48484835,5005.72727223,2991.9999997,4242.27272685,57.6969696912,4428.2424238,12.3636363624,4221.15151473,8.2424242416,4842.42424194,12.3636363624,4562.69696924,3783.27272689,42.0,42.0,?
2017-06-01 17:29:31.233156,4538.48484803,0.0,4223.21212079,4.1212121208,3943.48484809,107.151515141,3872.90909052,255.51515149,4304.09090866,2802.42424214,4490.57575713,1776.24242406,4261.84848442,2835.39393911,4401.96969653,1376.48484835,5014.9999995,2991.9999997,4227.33333291,57.6969696912,4428.2424238,12.3636363624,4219.09090867,8.2424242416,4839.33333285,12.3636363624,4556.51515106,3783.27272689,42.0,42.0,?
2017-06-01 17:29:31.247317,4536.93939349,0.0,4224.24242382,4.1212121208,3937.81818142,107.151515141,3864.66666628,255.51515149,4277.81818139,2802.42424214,4475.63636319,1776.24242406,4240.7272723,2835.39393911,4377.2424238,1376.48484835,4994.39393889,2991.9999997,4209.8181814,57.6969696912,4431.84848441,12.3636363624,4218.06060564,8.2424242416,4839.84848436,12.3636363624,4545.18181773,3775.03030265,42.0,42.0,?
2017-06-01 17:29:31.250322,4540.54545409,0.0,4226.30302988,4.1212121208,3942.96969658,28.8484848456,3879.60606022,255.51515149,4273.69696927,2802.42424214,4475.12121167,1776.24242406,4232.99999958,2835.39393911,4359.72727229,1376.48484835,4969.66666617,2991.9999997,4213.93939352,57.6969696912,4430.30302986,12.3636363624,4219.09090867,8.2424242416,4837.27272679,12.3636363624,4550.84848439,3775.03030265,42.0,42.0,?
2017-06-01 17:29:31.254478,4536.93939349,0.0,4222.18181776,4.1212121208,3949.66666627,28.8484848456,3899.69696931,251.393939369,4295.84848442,2802.42424214,4490.57575713,1776.24242406,4235.57575715,2835.39393911,4374.66666623,1376.48484835,4954.72727223,2991.9999997,4218.57575715,57.6969696912,4427.72727228,12.3636363624,4220.1212117,8.2424242416,4836.24242376,12.3636363624,4560.12121167,3775.03030265,42.0,42.0,?
2017-06-01 17:29:31.262620,4538.99999955,0.0,4222.18181776,4.1212121208,3937.81818142,28.8484848456,3884.75757537,251.393939369,4305.12121169,2802.42424214,4500.36363591,1776.24242406,4236.09090867,2835.39393911,4386.51515108,1376.48484835,4941.84848435,2991.9999997,4202.60606019,57.6969696912,4427.21212077,12.3636363624,4218.57575715,8.2424242416,4841.39393891,12.3636363624,4546.21212076,3775.03030265,42.0,42.0,?
2017-06-01 17:29:31.271192,4539.51515106,0.0,4225.78787837,4.1212121208,3929.06060567,28.8484848456,3869.81818143,251.393939369,4303.06060563,2802.42424214,4497.78787834,1776.24242406,4239.18181776,2835.39393911,4375.69696926,1376.48484835,4941.33333284,2991.9999997,4188.69696928,57.6969696912,4423.60606016,12.3636363624,4215.48484806,8.2424242416,4838.30302982,12.3636363624,4530.7575753,3775.03030265,42.0,42.0,?
2017-06-01 17:29:31.277392,4536.93939349,0.0,4222.18181776,4.1212121208,3938.33333294,28.8484848456,3890.42424204,251.393939369,4303.06060563,2802.42424214,4495.72727228,1776.24242406,4251.54545412,2847.75757547,4367.96969653,1376.48484835,4946.99999951,2991.9999997,4195.90909049,57.6969696912,4429.27272683,12.3636363624,4218.57575715,8.2424242416,4842.42424194,12.3636363624,4538.48484803,3775.03030265,42.0,42.0,?
2017-06-01 17:29:31.285374,4541.57575712,0.0,4219.60606018,4.1212121208,3939.36363597,28.8484848456,3896.0909087,251.393939369,4301.51515109,2802.42424214,4493.1515147,1776.24242406,4258.24242382,2847.75757547,4377.75757532,1376.48484835,4944.93939344,2991.9999997,4205.69696928,57.6969696912,4430.81818138,12.3636363624,4218.57575715,8.2424242416,4842.93939346,12.3636363624,4551.36363591,3775.03030265,42.0,42.0,?
2017-06-01 17:29:31.294782,4539.51515106,0.0,4221.66666624,4.1212121208,3929.06060567,28.8484848456,3875.99999961,251.393939369,4300.99999957,2802.42424214,4498.81818137,1776.24242406,4263.39393897,2847.75757547,4388.06060562,1376.48484835,4959.87878738,2987.87878758,4210.33333291,57.6969696912,4427.21212077,12.3636363624,4216.51515109,8.2424242416,4836.75757527,12.3636363624,4551.87878742,3775.03030265,42.0,42.0,?
2017-06-01 17:29:31.302451,4541.06060561,0.0,4226.8181814,4.1212121208,3930.0909087,28.8484848456,3872.90909052,251.393939369,4310.78787836,2802.42424214,4511.69696925,1776.24242406,4275.24242381,2847.75757547,4391.66666623,1376.48484835,4990.78787829,2987.87878758,4214.45454503,41.212121208,4430.30302986,12.3636363624,4219.60606018,8.2424242416,4841.90909042,12.3636363624,4550.33333288,3775.03030265,42.0,42.0,?
2017-06-01 17:29:31.310216,4542.09090864,0.0,4224.75757534,4.1212121208,3935.24242385,28.8484848456,3881.66666628,251.393939369,4303.06060563,2802.42424214,4501.39393894,1776.24242406,4274.7272723,2847.75757547,4391.66666623,1376.48484835,4994.90909041,2987.87878758,4215.48484806,41.212121208,4429.27272683,8.2424242416,4220.63636321,8.2424242416,4840.36363588,12.3636363624,4549.81818136,3775.03030265,42.0,42.0,?
2017-06-01 17:29:31.317448,4537.96969652,0.0,4220.1212117,4.1212121208,3926.48484809,28.8484848456,3878.57575719,251.393939369,4276.27272685,2802.42424214,4476.1515147,1776.24242406,4259.27272685,2847.75757547,4387.03030259,1376.48484835,4966.57575708,2987.87878758,4210.33333291,41.212121208,4430.30302986,8.2424242416,4218.57575715,4.1212121208,4837.7878783,12.3636363624,4542.60606015,3775.03030265,42.0,42.0,?
2017-06-01 17:29:31.324880,4540.03030258,0.0,4225.27272685,4.1212121208,3916.18181779,28.8484848456,3874.96969658,251.393939369,4274.7272723,2802.42424214,4478.72727228,1776.24242406,4249.99999958,2847.75757547,4383.9393935,1376.48484835,4962.96969647,2987.87878758,4203.63636322,41.212121208,4428.75757531,8.2424242416,4215.48484806,4.1212121208,4840.36363588,8.2424242416,4530.24242379,3775.03030265,42.0,42.0,?
2017-06-01 17:29:31.333277,4537.454545,0.0,4225.27272685,4.1212121208,3918.24242385,28.8484848456,3878.57575719,251.393939369,4294.30302987,2802.42424214,4495.72727228,1776.24242406,4255.15151473,2847.75757547,4385.48484805,1376.48484835,5002.12121162,2987.87878758,4205.18181776,45.3333333288,4426.69696925,8.2424242416,4213.93939352,4.1212121208,4838.81818133,8.2424242416,4523.54545409,3775.03030265,42.0,42.0,?
2017-06-01 17:29:31.341874,4538.48484803,0.0,4219.60606018,4.1212121208,3923.393939,28.8484848456,3875.4848481,251.393939369,4298.42424199,2802.42424214,4495.72727228,1776.24242406,4257.7272723,2847.75757547,4386.51515108,1376.48484835,5005.21212071,2987.87878758,4206.21212079,45.3333333288,4429.78787834,12.3636363624,4216.51515109,4.1212121208,4840.87878739,8.2424242416,4523.03030258,3775.03030265,42.0,42.0,?
2017-06-01 17:29:31.348972,4541.57575712,0.0,4221.15151473,4.1212121208,3924.93939355,28.8484848456,3877.03030264,251.393939369,4287.09090866,2802.42424214,4490.57575713,1776.24242406,4247.93939351,2847.75757547,4376.72727229,1376.48484835,4967.09090859,2987.87878758,4202.09090867,45.3333333288,4427.72727228,12.3636363624,4217.03030261,4.1212121208,4838.81818133,8.2424242416,4524.57575712,3775.03030265,42.0,42.0,?
2017-06-01 17:29:31.356768,4537.96969652,0.0,4224.75757534,4.1212121208,3928.03030264,28.8484848456,3880.12121173,251.393939369,4287.60606018,2802.42424214,4492.63636319,1776.24242406,4240.21212079,2847.75757547,4370.03030259,1376.48484835,4966.57575708,2987.87878758,4198.99999958,45.3333333288,4429.78787834,12.3636363624,4217.03030261,4.1212121208,4838.81818133,8.2424242416,4528.69696924,3775.03030265,42.0,42.0,?
2017-06-01 17:29:31.366832,4541.57575712,0.0,4225.27272685,4.1212121208,3924.42424203,28.8484848456,3868.27272689,251.393939369,4295.84848442,2802.42424214,4495.21212076,1776.24242406,4238.66666624,2847.75757547,4376.21212077,1376.48484835,4969.66666617,2987.87878758,4186.1212117,45.3333333288,4429.27272683,12.3636363624,4216.51515109,4.1212121208,4839.84848436,8.2424242416,4531.27272682,3775.03030265,42.0,42.0,?
2017-06-01 17:29:31.371949,4539.51515106,0.0,4222.18181776,4.1212121208,3925.45454506,28.8484848456,3867.24242386,251.393939369,4291.21212078,2802.42424214,4496.24242379,1776.24242406,4243.30302988,2847.75757547,4376.21212077,1376.48484835,4936.6969692,2987.87878758,4170.66666625,45.3333333288,4423.60606016,12.3636363624,4215.48484806,4.1212121208,4837.27272679,8.2424242416,4534.87878743,3775.03030265,42.0,42.0,?
2017-06-01 17:29:31.379683,4538.48484803,0.0,4223.21212079,4.1212121208,3938.33333294,28.8484848456,3885.7878784,251.393939369,4286.06060563,2802.42424214,4494.18181773,1776.24242406,4250.51515109,2847.75757547,4374.66666623,1376.48484835,4945.45454496,2987.87878758,4169.1212117,45.3333333288,4427.72727228,12.3636363624,4218.06060564,4.1212121208,4841.90909042,8.2424242416,4546.21212076,3775.03030265,42.0,42.0,?
2017-06-01 17:29:31.388063,4541.57575712,0.0,4225.78787837,4.1212121208,3939.36363597,28.8484848456,3886.30302991,251.393939369,4288.63636321,2802.42424214,4484.90909046,1776.24242406,4252.57575715,2847.75757547,4378.78787835,1376.48484835,4984.09090859,2987.87878758,4170.15151473,45.3333333288,4427.21212077,12.3636363624,4219.60606018,4.1212121208,4841.39393891,8.2424242416,4548.78787833,3775.03030265,42.0,42.0,?
2017-06-01 17:29:31.395354,4537.454545,0.0,4222.69696927,4.1212121208,3926.48484809,28.8484848456,3867.75757537,251.393939369,4288.12121169,2802.42424214,4477.69696925,1776.24242406,4251.54545412,2847.75757547,4375.69696926,1376.48484835,4971.72727223,2987.87878758,4167.57575716,45.3333333288,4426.18181774,12.3636363624,4218.06060564,4.1212121208,4839.84848436,8.2424242416,4543.63636318,3775.03030265,42.0,42.0,?
2017-06-01 17:29:31.405146,4538.99999955,0.0,4222.69696927,4.1212121208,3909.99999961,28.8484848456,3859.51515113,251.393939369,4281.424242,2802.42424214,4482.33333289,1776.24242406,4251.54545412,2847.75757547,4365.39393896,1376.48484835,4941.33333284,2987.87878758,4164.48484807,45.3333333288,4430.30302986,12.3636363624,4214.45454503,4.1212121208,4841.39393891,8.2424242416,4538.99999955,3775.03030265,42.0,42.0,?
2017-06-01 17:29:31.411384,4538.99999955,0.0,4222.69696927,4.1212121208,3928.54545415,28.8484848456,3865.69696931,251.393939369,4276.27272685,2802.42424214,4481.30302985,1776.24242406,4246.39393897,2847.75757547,4371.06060562,1376.48484835,4959.87878738,2987.87878758,4164.99999958,45.3333333288,4427.72727228,12.3636363624,4214.96969655,4.1212121208,4836.24242376,8.2424242416,4536.42424197,3775.03030265,42.0,42.0,?
2017-06-01 17:29:31.420258,4536.93939349,0.0,4223.21212079,4.1212121208,4001.18181778,28.8484848456,3872.39393901,251.393939369,4263.90909048,2802.42424214,4466.36363592,1776.24242406,4235.57575715,2847.75757547,4370.54545411,1376.48484835,4976.36363587,2987.87878758,4167.06060564,45.3333333288,4428.75757531,12.3636363624,4218.06060564,4.1212121208,4839.33333285,8.2424242416,4534.87878743,3775.03030265,42.0,42.0,?
2017-06-01 17:29:31.426469,4538.48484803,0.0,4226.30302988,4.1212121208,4058.87878747,28.8484848456,3868.7878784,251.393939369,4255.66666624,2802.42424214,4459.66666622,1776.24242406,4225.78787837,2847.75757547,4349.9393935,1376.48484835,4955.75757526,2987.87878758,4165.5151511,45.3333333288,4427.72727228,12.3636363624,4215.99999958,4.1212121208,4839.33333285,8.2424242416,4531.27272682,3775.03030265,42.0,42.0,?
2017-06-01 17:29:31.434375,4535.90909046,0.0,4222.69696927,4.1212121208,4057.84848444,28.8484848456,3856.93939355,251.393939369,4265.45454503,2802.42424214,4473.06060561,1776.24242406,4218.57575715,2847.75757547,4353.54545411,1376.48484835,4946.48484799,2987.87878758,4165.5151511,45.3333333288,4428.2424238,12.3636363624,4215.48484806,4.1212121208,4835.72727224,8.2424242416,4521.99999955,3775.03030265,42.0,42.0,?
2017-06-01 17:29:31.442520,4540.54545409,0.0,4221.66666624,4.1212121208,4048.57575717,28.8484848456,3858.99999961,251.393939369,4274.21212078,2802.42424214,4483.36363592,1776.24242406,4214.45454503,2847.75757547,4371.57575714,1376.48484835,4956.78787829,2987.87878758,4166.54545413,45.3333333288,4430.30302986,12.3636363624,4217.54545412,4.1212121208,4842.42424194,8.2424242416,4512.21212076,3775.03030265,42.0,42.0,?
2017-06-01 17:29:31.450109,4541.06060561,0.0,4222.69696927,4.1212121208,4064.54545414,28.8484848456,3878.06060567,251.393939369,4280.39393897,2802.42424214,4476.66666622,1776.24242406,4223.7272723,2847.75757547,4368.48484805,1376.48484835,4976.87878738,2987.87878758,4176.33333292,45.3333333288,4428.2424238,12.3636363624,4215.99999958,4.1212121208,4842.42424194,8.2424242416,4519.93939349,3775.03030265,42.0,42.0,?
2017-06-01 17:29:31.460084,4537.454545,0.0,4223.21212079,4.1212121208,4070.72727232,28.8484848456,3879.0909087,251.393939369,4294.30302987,2802.42424214,4480.78787834,1776.24242406,4238.66666624,2847.75757547,4368.99999956,1376.48484835,4984.09090859,2987.87878758,4190.75757534,45.3333333288,4430.30302986,12.3636363624,4218.57575715,4.1212121208,4842.93939346,8.2424242416,4537.454545,3775.03030265,42.0,42.0,?
2017-06-01 17:29:31.465347,4540.03030258,0.0,4227.33333291,4.1212121208,4050.63636323,28.8484848456,3857.96969658,251.393939369,4292.24242381,2802.42424214,4494.69696925,1776.24242406,4235.06060564,2847.75757547,4377.2424238,1376.48484835,4955.75757526,2987.87878758,4183.54545413,45.3333333288,4425.15151471,12.3636363624,4218.57575715,4.1212121208,4840.87878739,8.2424242416,4533.8484844,3775.03030265,42.0,42.0,?
2017-06-01 17:29:31.484329,4539.51515106,0.0,4226.30302988,4.1212121208,4028.9999996,28.8484848456,3863.63636325,251.393939369,4274.21212078,2802.42424214,4483.36363592,1776.24242406,4232.99999958,2847.75757547,4373.6363632,1376.48484835,4940.81818132,2987.87878758,4167.57575716,45.3333333288,4424.63636319,12.3636363624,4216.51515109,4.1212121208,4837.27272679,8.2424242416,4518.39393894,3775.03030265,42.0,42.0,?
2017-06-01 17:29:31.486479,4540.54545409,0.0,4224.75757534,4.1212121208,4020.75757536,28.8484848456,3875.99999961,251.393939369,4270.09090866,2802.42424214,4469.45454501,1776.24242406,4248.45454503,2847.75757547,4364.87878744,1376.48484835,4966.06060556,2987.87878758,4168.09090867,45.3333333288,4430.30302986,12.3636363624,4218.57575715,4.1212121208,4841.39393891,8.2424242416,4515.30302985,3775.03030265,42.0,42.0,?
2017-06-01 17:29:31.489450,4537.454545,0.0,4224.24242382,4.1212121208,4020.75757536,28.8484848456,3862.0909087,251.393939369,4274.7272723,2802.42424214,4478.72727228,1776.24242406,4255.15151473,2847.75757547,4364.36363593,1376.48484835,4971.72727223,2987.87878758,4167.06060564,45.3333333288,4426.69696925,12.3636363624,4218.06060564,4.1212121208,4839.33333285,8.2424242416,4520.454545,3775.03030265,42.0,42.0,?
2017-06-01 17:29:31.498173,4535.39393894,0.0,4223.21212079,4.1212121208,4022.81818142,28.8484848456,3854.36363598,251.393939369,4273.69696927,2802.42424214,4480.78787834,1776.24242406,4242.78787836,2847.75757547,4365.39393896,1376.48484835,4935.66666617,2987.87878758,4150.06060565,45.3333333288,4427.72727228,12.3636363624,4216.51515109,4.1212121208,4839.33333285,8.2424242416,4518.39393894,3775.03030265,42.0,42.0,?
2017-06-01 17:29:31.505482,4543.63636318,0.0,4225.27272685,4.1212121208,4024.36363596,28.8484848456,3858.99999961,251.393939369,4276.27272685,2802.42424214,4470.48484804,1776.24242406,4231.45454503,2847.75757547,4352.51515108,1376.48484835,4924.33333284,2987.87878758,4139.75757534,45.3333333288,4427.21212077,12.3636363624,4216.51515109,4.1212121208,4839.84848436,8.2424242416,4509.12121167,3775.03030265,42.0,42.0,?
2017-06-01 17:29:31.512920,4539.51515106,0.0,4223.7272723,4.1212121208,4029.51515111,28.8484848456,3861.57575719,251.393939369,4280.39393897,2802.42424214,4473.06060561,1776.24242406,4234.54545412,2847.75757547,4343.75757532,1376.48484835,4945.96969648,2987.87878758,4150.06060565,45.3333333288,4424.12121168,12.3636363624,4217.54545412,4.1212121208,4836.75757527,8.2424242416,4503.96969652,3775.03030265,42.0,42.0,?
2017-06-01 17:29:31.521478,4536.42424197,0.0,4223.21212079,4.1212121208,4029.51515111,28.8484848456,3869.30302992,251.393939369,4268.0303026,2802.42424214,4468.93939349,1776.24242406,4221.15151473,2847.75757547,4348.39393896,1376.48484835,4931.03030254,2987.87878758,4155.72727231,45.3333333288,4426.69696925,12.3636363624,4213.93939352,4.1212121208,4839.84848436,8.2424242416,4508.09090864,3775.03030265,42.0,42.0,?
2017-06-01 17:29:31.528749,4539.51515106,0.0,4224.75757534,4.1212121208,4028.48484808,28.8484848456,3870.84848446,251.393939369,4250.51515109,2802.42424214,4458.63636319,1776.24242406,4192.30302988,2847.75757547,4344.27272684,1376.48484835,4906.81818133,2987.87878758,4151.09090868,45.3333333288,4424.12121168,12.3636363624,4210.33333291,4.1212121208,4840.36363588,8.2424242416,4507.57575713,3775.03030265,42.0,42.0,?
2017-06-01 17:29:31.538258,4536.93939349,0.0,4223.7272723,4.1212121208,4039.81818141,28.8484848456,3859.51515113,251.393939369,4263.90909048,2802.42424214,4474.09090864,1776.24242406,4197.96969655,2847.75757547,4344.27272684,1376.48484835,4936.6969692,2987.87878758,4166.03030261,45.3333333288,4427.72727228,12.3636363624,4217.03030261,4.1212121208,4843.96969649,8.2424242416,4507.06060561,3775.03030265,42.0,42.0,?
2017-06-01 17:29:31.543480,4538.99999955,0.0,4224.75757534,4.1212121208,4045.9999996,28.8484848456,3861.57575719,251.393939369,4277.81818139,2802.42424214,4480.78787834,1776.24242406,4220.63636321,2847.75757547,4357.15151472,1376.48484835,4968.63636314,2987.87878758,4185.60606019,45.3333333288,4429.78787834,12.3636363624,4221.66666624,4.1212121208,4843.96969649,8.2424242416,4512.72727228,3775.03030265,42.0,42.0,?
2017-06-01 17:29:31.551425,4539.51515106,0.0,4222.69696927,4.1212121208,4042.9090905,28.8484848456,3878.06060567,251.393939369,4263.39393897,2802.42424214,4461.72727228,1776.24242406,4221.66666624,2847.75757547,4360.24242381,1376.48484835,4959.87878738,2987.87878758,4188.69696928,45.3333333288,4425.66666622,12.3636363624,4218.06060564,4.1212121208,4838.30302982,8.2424242416,4521.99999955,3775.03030265,42.0,42.0,?
2017-06-01 17:29:31.560988,4541.06060561,0.0,4222.69696927,4.1212121208,4045.9999996,28.8484848456,3876.51515113,251.393939369,4261.33333291,2802.42424214,4465.33333289,1776.24242406,4229.90909049,2847.75757547,4360.24242381,1376.48484835,4957.30302981,2987.87878758,4196.424242,45.3333333288,4427.72727228,12.3636363624,4217.03030261,4.1212121208,4841.90909042,8.2424242416,4532.81818136,3775.03030265,42.0,42.0,?
2017-06-01 17:29:31.568094,4541.06060561,0.0,4224.24242382,4.1212121208,4044.45454505,28.8484848456,3858.4848481,251.393939369,4283.99999957,2802.42424214,4486.45454501,1776.24242406,4249.99999958,2847.75757547,4368.99999956,1376.48484835,4961.93939344,2987.87878758,4205.18181776,45.3333333288,4426.18181774,12.3636363624,4216.51515109,4.1212121208,4839.84848436,8.2424242416,4537.96969652,3775.03030265,42.0,42.0,?
2017-06-01 17:29:31.575530,4538.48484803,0.0,4222.69696927,4.1212121208,4028.9999996,28.8484848456,3855.39393901,251.393939369,4283.99999957,2802.42424214,4484.39393895,1776.24242406,4246.90909048,2847.75757547,4366.9393935,1376.48484835,4952.15151466,2987.87878758,4196.93939352,45.3333333288,4427.72727228,12.3636363624,4215.99999958,4.1212121208,4839.84848436,8.2424242416,4527.66666621,3775.03030265,42.0,42.0,?
2017-06-01 17:29:31.582990,4541.06060561,0.0,4224.75757534,4.1212121208,4010.45454505,28.8484848456,3859.51515113,251.393939369,4260.30302988,2802.42424214,4476.1515147,1776.24242406,4230.93939352,2847.75757547,4358.69696926,1376.48484835,4948.54545405,2987.87878758,4179.42424201,45.3333333288,4429.78787834,12.3636363624,4217.03030261,4.1212121208,4844.484848,8.2424242416,4511.18181773,3775.03030265,42.0,42.0,?
2017-06-01 17:29:31.592946,4536.42424197,0.0,4225.27272685,4.1212121208,4006.33333293,28.8484848456,3853.84848446,251.393939369,4267.51515109,2802.42424214,4483.36363592,1776.24242406,4233.51515109,2847.75757547,4368.48484805,1376.48484835,4961.93939344,2987.87878758,4178.90909049,45.3333333288,4425.66666622,12.3636363624,4217.54545412,4.1212121208,4840.36363588,8.2424242416,4515.81818137,3775.03030265,42.0,42.0,?
2017-06-01 17:29:31.600320,4537.96969652,0.0,4222.69696927,4.1212121208,4006.33333293,28.8484848456,3849.72727234,251.393939369,4285.54545412,2802.42424214,4485.42424198,1776.24242406,4241.75757533,2847.75757547,4372.60606017,1376.48484835,4966.06060556,2987.87878758,4181.99999958,45.3333333288,4426.18181774,12.3636363624,4215.48484806,4.1212121208,4842.93939346,8.2424242416,4524.57575712,3775.03030265,42.0,42.0,?
2017-06-01 17:29:31.606837,4545.18181773,0.0,4223.7272723,4.1212121208,4001.6969693,28.8484848456,3855.90909052,251.393939369,4271.63636321,2802.42424214,4474.09090864,1776.24242406,4228.36363594,2847.75757547,4354.06060563,1376.48484835,4953.6969692,2987.87878758,4162.42424201,45.3333333288,4426.18181774,12.3636363624,4213.93939352,4.1212121208,4842.93939346,8.2424242416,4506.54545409,3775.03030265,42.0,42.0,?
2017-06-01 17:29:31.614402,4540.54545409,0.0,4223.7272723,4.1212121208,4003.24242384,28.8484848456,3863.12121173,251.393939369,4258.24242382,2802.42424214,4467.90909046,1776.24242406,4209.8181814,2847.75757547,4341.18181775,1376.48484835,4924.84848436,2987.87878758,4144.90909049,45.3333333288,4429.78787834,12.3636363624,4215.48484806,4.1212121208,4840.87878739,8.2424242416,4491.60606016,3775.03030265,42.0,42.0,?
2017-06-01 17:29:31.624388,4540.03030258,0.0,4226.8181814,4.1212121208,4008.39393899,28.8484848456,3854.36363598,251.393939369,4259.78787836,2802.42424214,4467.39393895,1776.24242406,4202.60606019,2847.75757547,4337.06060563,1376.48484835,4903.72727224,2987.87878758,4145.93939352,45.3333333288,4431.33333289,12.3636363624,4215.99999958,4.1212121208,4842.42424194,8.2424242416,4493.1515147,3775.03030265,42.0,42.0,?
2017-06-01 17:29:31.629384,4540.03030258,0.0,4224.75757534,4.1212121208,4016.12121172,28.8484848456,3853.33333295,251.393939369,4255.15151473,2802.42424214,4458.12121168,1776.24242406,4198.99999958,2847.75757547,4328.30302987,1376.48484835,4931.03030254,2987.87878758,4154.69696928,45.3333333288,4426.18181774,12.3636363624,4213.93939352,4.1212121208,4838.81818133,8.2424242416,4499.33333288,3775.03030265,42.0,42.0,?
2017-06-01 17:29:31.637392,4538.99999955,0.0,4220.63636321,4.1212121208,4025.39393899,28.8484848456,3868.27272689,251.393939369,4254.63636321,2802.42424214,4453.48484804,1776.24242406,4198.48484806,2847.75757547,4326.24242381,1376.48484835,4945.45454496,2987.87878758,4159.84848443,45.3333333288,4428.2424238,12.3636363624,4216.51515109,4.1212121208,4842.93939346,8.2424242416,4506.54545409,3775.03030265,42.0,42.0,?
2017-06-01 17:29:31.645905,4542.09090864,0.0,4223.7272723,4.1212121208,4029.51515111,28.8484848456,3868.27272689,251.393939369,4267.51515109,2802.42424214,4472.5454541,1776.24242406,4209.30302988,2847.75757547,4346.3333329,1376.48484835,4914.03030254,2987.87878758,4173.24242383,45.3333333288,4427.21212077,12.3636363624,4219.09090867,4.1212121208,4842.42424194,8.2424242416,4515.30302985,3775.03030265,42.0,42.0,?
2017-06-01 17:29:31.654308,4535.39393894,0.0,4223.7272723,4.1212121208,4034.15151475,28.8484848456,3860.03030264,251.393939369,4276.78787836,2802.42424214,4487.99999955,1776.24242406,4229.39393897,2847.75757547,4373.6363632,1376.48484835,4941.33333284,2987.87878758,4200.54545413,45.3333333288,4426.18181774,12.3636363624,4220.63636321,4.1212121208,4839.84848436,8.2424242416,4524.57575712,3775.03030265,42.0,42.0,?
2017-06-01 17:29:31.662206,4534.87878743,0.0,4222.18181776,4.1212121208,4034.15151475,28.8484848456,3854.87878749,251.393939369,4273.18181775,2802.42424214,4478.72727228,1776.24242406,4236.09090867,2847.75757547,4371.57575714,1376.48484835,5004.6969692,2987.87878758,4214.45454503,45.3333333288,4429.27272683,12.3636363624,4221.15151473,4.1212121208,4842.42424194,8.2424242416,4532.30302985,3775.03030265,42.0,42.0,?
2017-06-01 17:29:31.668866,4538.48484803,0.0,4221.66666624,4.1212121208,4022.3030299,28.8484848456,3853.84848446,251.393939369,4261.33333291,2802.42424214,4467.39393895,1776.24242406,4223.7272723,2847.75757547,4353.54545411,1376.48484835,4980.48484799,2987.87878758,4199.5151511,45.3333333288,4427.72727228,12.3636363624,4215.48484806,4.1212121208,4837.7878783,8.2424242416,4530.24242379,3775.03030265,42.0,42.0,?
2017-06-01 17:29:31.678677,4538.99999955,0.0,4222.69696927,4.1212121208,4011.9999996,28.8484848456,3855.90909052,251.393939369,4258.75757533,2802.42424214,4464.30302986,1776.24242406,4219.09090867,2847.75757547,4347.87878744,1376.48484835,4925.87878739,2987.87878758,4178.39393898,45.3333333288,4430.30302986,12.3636363624,4215.48484806,4.1212121208,4838.30302982,8.2424242416,4520.96969652,3775.03030265,42.0,42.0,?
2017-06-01 17:29:31.685616,4542.09090864,0.0,4224.75757534,4.1212121208,4014.06060566,28.8484848456,3857.96969658,251.393939369,4277.30302988,2802.42424214,4469.45454501,1776.24242406,4237.1212117,2847.75757547,4355.09090866,1376.48484835,4948.03030254,2987.87878758,4179.42424201,45.3333333288,4429.27272683,12.3636363624,4220.63636321,4.1212121208,4838.30302982,8.2424242416,4518.90909046,3775.03030265,42.0,42.0,?
2017-06-01 17:29:31.692633,4539.51515106,0.0,4222.18181776,4.1212121208,4018.18181778,28.8484848456,3862.0909087,251.393939369,4290.18181775,2802.42424214,4481.81818137,1776.24242406,4253.60606018,2847.75757547,4371.57575714,1376.48484835,4975.33333284,2987.87878758,4197.96969655,45.3333333288,4426.69696925,12.3636363624,4218.57575715,4.1212121208,4838.30302982,8.2424242416,4527.66666621,3775.03030265,42.0,42.0,?
2017-06-01 17:29:31.703436,4541.06060561,0.0,4225.27272685,4.1212121208,4013.03030263,28.8484848456,3861.57575719,251.393939369,4278.33333291,2802.42424214,4484.39393895,1776.24242406,4243.30302988,2847.75757547,4370.54545411,1376.48484835,4951.63636314,2987.87878758,4199.5151511,45.3333333288,4429.27272683,12.3636363624,4215.99999958,4.1212121208,4842.93939346,8.2424242416,4530.24242379,3775.03030265,42.0,42.0,?
2017-06-01 17:29:31.708976,4540.54545409,0.0,4226.8181814,4.1212121208,4008.90909051,28.8484848456,3864.15151477,251.393939369,4274.21212078,2802.42424214,4478.21212076,1776.24242406,4239.69696927,2847.75757547,4360.75757532,1376.48484835,4945.96969648,2987.87878758,4188.69696928,45.3333333288,4427.72727228,12.3636363624,4217.54545412,4.1212121208,4838.81818133,8.2424242416,4524.06060561,3775.03030265,42.0,42.0,?
2017-06-01 17:29:31.715428,4538.99999955,0.0,4223.7272723,4.1212121208,4003.24242384,28.8484848456,3871.36363598,251.393939369,4282.96969654,2802.42424214,4475.63636319,1776.24242406,4252.57575715,2847.75757547,4367.45454502,1376.48484835,4977.90909041,2987.87878758,4180.96969655,45.3333333288,4430.30302986,12.3636363624,4219.60606018,4.1212121208,4839.84848436,8.2424242416,4512.21212076,3775.03030265,42.0,42.0,?
2017-06-01 17:29:31.724076,4545.18181773,4.1212121208,4225.27272685,4.1212121208,3987.27272687,28.8484848456,3867.75757537,251.393939369,4274.21212078,2802.42424214,4469.96969652,1776.24242406,4242.78787836,2847.75757547,4368.48484805,1376.48484835,4975.33333284,2987.87878758,4172.21212079,45.3333333288,4429.27272683,12.3636363624,4218.57575715,4.1212121208,4841.39393891,8.2424242416,4498.81818137,3775.03030265,42.0,42.0,?
2017-06-01 17:29:31.733601,4541.06060561,4.1212121208,4224.75757534,0.0,3983.66666627,28.8484848456,3854.36363598,251.393939369,4259.27272685,2802.42424214,4463.27272683,1776.24242406,4226.8181814,2847.75757547,4359.21212078,1376.48484835,4953.18181769,2987.87878758,4172.21212079,45.3333333288,4425.66666622,12.3636363624,4218.06060564,4.1212121208,4838.30302982,8.2424242416,4498.30302985,3775.03030265,42.0,42.0,?
2017-06-01 17:29:31.740072,4540.03030258,4.1212121208,4224.75757534,0.0,4002.72727233,28.8484848456,3854.87878749,251.393939369,4258.75757533,2802.42424214,4468.42424198,1776.24242406,4237.1212117,2847.75757547,4353.54545411,1376.48484835,4971.72727223,2987.87878758,4178.90909049,45.3333333288,4430.30302986,12.3636363624,4219.09090867,4.1212121208,4841.90909042,8.2424242416,4511.69696925,3783.27272689,42.0,42.0,?
2017-06-01 17:29:31.747371,4541.57575712,4.1212121208,4226.30302988,0.0,4022.81818142,20.606060604,3867.24242386,251.393939369,4271.63636321,2802.42424214,4478.21212076,1776.24242406,4252.06060564,2847.75757547,4355.09090866,1376.48484835,4976.36363587,2987.87878758,4181.99999958,45.3333333288,4429.27272683,12.3636363624,4217.54545412,4.1212121208,4836.24242376,8.2424242416,4523.54545409,3783.27272689,42.0,42.0,?
2017-06-01 17:29:31.754943,4537.454545,4.1212121208,4223.21212079,0.0,4027.96969657,20.606060604,3866.72727234,259.63636361,4285.0303026,2802.42424214,4481.30302985,1776.24242406,4246.90909048,2847.75757547,4370.03030259,1376.48484835,4944.93939344,2987.87878758,4188.18181776,45.3333333288,4431.33333289,12.3636363624,4217.54545412,4.1212121208,4835.72727224,8.2424242416,4524.06060561,3783.27272689,42.0,42.0,?
2017-06-01 17:29:31.762360,4539.51515106,4.1212121208,4224.24242382,0.0,4020.24242384,20.606060604,3862.60606022,259.63636361,4276.27272685,2806.54545426,4478.21212076,1776.24242406,4228.87878746,2847.75757547,4380.84848441,1376.48484835,4943.3939389,2987.87878758,4189.72727231,45.3333333288,4430.30302986,12.3636363624,4217.54545412,4.1212121208,4842.42424194,8.2424242416,4513.24242379,3783.27272689,42.0,42.0,?
2017-06-01 17:29:31.772338,4537.454545,4.1212121208,4224.75757534,0.0,4021.27272687,20.606060604,3875.99999961,259.63636361,4268.54545412,2806.54545426,4473.57575713,1763.8787877,4227.33333291,2847.75757547,4365.90909047,1376.48484835,4971.72727223,2987.87878758,4190.75757534,45.3333333288,4424.63636319,12.3636363624,4217.03030261,4.1212121208,4838.81818133,8.2424242416,4513.75757531,3783.27272689,42.0,42.0,?
2017-06-01 17:29:31.779723,4539.51515106,4.1212121208,4224.75757534,0.0,4033.12121172,20.606060604,3885.27272688,259.63636361,4285.54545412,2806.54545426,4481.81818137,1763.8787877,4243.30302988,2835.39393911,4356.12121169,1376.48484835,4970.6969692,2987.87878758,4200.03030261,45.3333333288,4428.2424238,12.3636363624,4218.57575715,4.1212121208,4840.36363588,8.2424242416,4530.24242379,3783.27272689,42.0,42.0,?
2017-06-01 17:29:31.787530,4543.63636318,4.1212121208,4225.78787837,0.0,4034.66666626,20.606060604,3874.96969658,259.63636361,4295.3333329,2806.54545426,4492.12121167,1763.8787877,4253.09090867,2835.39393911,4373.12121168,1368.24242411,4966.06060556,2987.87878758,4203.63636322,45.3333333288,4427.21212077,12.3636363624,4217.54545412,4.1212121208,4841.90909042,8.2424242416,4541.06060561,3783.27272689,42.0,42.0,?
2017-06-01 17:29:31.794376,4537.454545,4.1212121208,4221.66666624,0.0,4031.06060566,20.606060604,3872.39393901,259.63636361,4291.7272723,2806.54545426,4486.45454501,1763.8787877,4258.75757533,2835.39393911,4387.03030259,1368.24242411,4993.87878738,2987.87878758,4203.63636322,45.3333333288,4427.21212077,12.3636363624,4217.03030261,4.1212121208,4841.90909042,8.2424242416,4546.21212076,3783.27272689,42.0,42.0,?
2017-06-01 17:29:31.803587,4538.99999955,4.1212121208,4221.66666624,0.0,4025.39393899,20.606060604,3886.81818143,259.63636361,4291.7272723,2806.54545426,4484.39393895,1763.8787877,4260.81818139,2835.39393911,4379.30302987,1368.24242411,4996.96969647,2987.87878758,4205.18181776,37.0909090872,4428.2424238,12.3636363624,4217.54545412,4.1212121208,4842.93939346,8.2424242416,4544.1515147,3783.27272689,42.0,42.0,?
2017-06-01 17:29:31.810260,4539.51515106,4.1212121208,4222.69696927,0.0,4011.48484808,20.606060604,3891.45454507,259.63636361,4287.60606018,2806.54545426,4488.51515107,1763.8787877,4256.18181776,2835.39393911,4371.06060562,1368.24242411,4985.63636314,2987.87878758,4199.5151511,37.0909090872,4425.66666622,4.1212121208,4217.03030261,4.1212121208,4837.7878783,8.2424242416,4531.78787833,3783.27272689,42.0,42.0,?
2017-06-01 17:29:31.819552,4538.48484803,4.1212121208,4223.21212079,0.0,3991.90909051,20.606060604,3875.4848481,259.63636361,4271.63636321,2806.54545426,4476.66666622,1763.8787877,4249.99999958,2835.39393911,4368.48484805,1368.24242411,4985.12121162,2987.87878758,4189.72727231,37.0909090872,4428.75757531,4.1212121208,4219.09090867,8.2424242416,4839.33333285,8.2424242416,4517.87878743,3783.27272689,42.0,42.0,?
2017-06-01 17:29:31.826826,4542.09090864,4.1212121208,4223.7272723,0.0,3979.54545415,20.606060604,3859.51515113,259.63636361,4264.93939351,2806.54545426,4464.30302986,1763.8787877,4247.424242,2835.39393911,4368.99999956,1368.24242411,4960.90909041,2987.87878758,4191.27272685,37.0909090872,4427.21212077,4.1212121208,4219.60606018,8.2424242416,4838.81818133,8.2424242416,4512.72727228,3783.27272689,42.0,42.0,?
2017-06-01 17:29:31.834085,4538.48484803,4.1212121208,4223.21212079,0.0,3984.6969693,20.606060604,3858.4848481,259.63636361,4283.48484806,2806.54545426,4482.33333289,1763.8787877,4255.15151473,2835.39393911,4384.45454502,1368.24242411,4959.87878738,2987.87878758,4205.18181776,37.0909090872,4426.18181774,4.1212121208,4218.06060564,8.2424242416,4837.27272679,8.2424242416,4519.42424197,3783.27272689,42.0,42.0,?
2017-06-01 17:29:31.842210,4538.99999955,4.1212121208,4225.78787837,0.0,3991.90909051,20.606060604,3863.63636325,259.63636361,4292.75757533,2806.54545426,4497.27272682,1763.8787877,4254.63636321,2835.39393911,4398.87878744,1368.24242411,5002.12121162,2987.87878758,4207.75757534,37.0909090872,4428.75757531,8.2424242416,4218.57575715,8.2424242416,4840.87878739,8.2424242416,4520.454545,3783.27272689,42.0,42.0,?
2017-06-01 17:29:31.848904,4536.93939349,4.1212121208,4224.24242382,0.0,3997.57575718,20.606060604,3873.42424204,259.63636361,4275.75757533,2806.54545426,4483.36363592,1763.8787877,4249.99999958,2835.39393911,4378.78787835,1368.24242411,5010.87878738,2987.87878758,4203.1212117,37.0909090872,4427.21212077,8.2424242416,4219.09090867,12.3636363624,4837.7878783,8.2424242416,4509.12121167,3783.27272689,42.0,42.0,?
2017-06-01 17:29:31.856352,4537.454545,4.1212121208,4223.21212079,0.0,4005.81818142,20.606060604,3888.87878749,259.63636361,4271.12121169,2806.54545426,4474.60606016,1763.8787877,4251.54545412,2835.39393911,4349.42424199,1368.24242411,4964.51515102,2987.87878758,4200.03030261,37.0909090872,4430.30302986,8.2424242416,4218.57575715,12.3636363624,4838.81818133,8.2424242416,4502.42424197,3783.27272689,42.0,42.0,?
2017-06-01 17:29:31.866424,4544.66666621,4.1212121208,4226.30302988,0.0,4015.6060602,20.606060604,3888.36363597,259.63636361,4288.63636321,2806.54545426,4482.8484844,1763.8787877,4241.75757533,2835.39393911,4361.27272684,1368.24242411,4936.6969692,2987.87878758,4189.72727231,37.0909090872,4429.27272683,8.2424242416,4217.54545412,12.3636363624,4839.84848436,8.2424242416,4509.12121167,3783.27272689,42.0,42.0,?
2017-06-01 17:29:31.876183,4541.06060561,4.1212121208,4225.27272685,0.0,4026.93939354,20.606060604,3873.42424204,259.63636361,4281.93939351,2806.54545426,4478.72727228,1763.8787877,4227.84848443,2835.39393911,4371.06060562,1368.24242411,4954.21212072,2987.87878758,4186.1212117,37.0909090872,4429.78787834,8.2424242416,4217.54545412,12.3636363624,4839.33333285,8.2424242416,4520.96969652,3783.27272689,42.0,42.0,?
2017-06-01 17:29:31.882515,4539.51515106,4.1212121208,4227.84848443,0.0,4036.72727232,20.606060604,3873.93939355,259.63636361,4264.93939351,2806.54545426,4460.18181774,1763.8787877,4228.36363594,2835.39393911,4350.45454502,1368.24242411,4979.45454496,2987.87878758,4195.39393897,37.0909090872,4430.30302986,8.2424242416,4219.09090867,12.3636363624,4840.87878739,8.2424242416,4529.72727227,3783.27272689,42.0,42.0,?
