Timestamp,F3 Value,F3 Quality,FC5 Value,FC5 Quality,F7 Value,F7 Quality,T7 Value,T7 Quality,P7 Value,P7 Quality,O1 Value,O1 Quality,O2 Value,O2 Quality,P8 Value,P8 Quality,T8 Value,T8 Quality,F8 Value,F8 Quality,AF4 Value,AF4 Quality,FC6 Value,FC6 Quality,F4 Value,F4 Quality,AF3 Value,AF3 Quality,X Value,Y Value,Z Value
2017-06-01 17:02:22.648329,4543.63636318,0,4223.7272723,0,3932.66666627,0,3929.57575718,0,4244.84848442,0,4515.81818137,0,4231.96969655,0,4368.48484805,0,5023.24242374,0,4212.90909049,0,4426.18181774,0,4220.1212117,0,4840.36363588,0,4576.09090863,0,42.0,42.0,?
2017-06-01 17:02:22.648410,4532.81818136,0,4227.84848443,0,3858.99999961,0,3874.96969658,0,4246.90909048,0,4420.51515107,0,4147.48484807,0,4297.90909048,0,4941.84848435,0,4149.54545413,0,4424.63636319,0,4219.09090867,0,4838.81818133,0,4476.1515147,0,42.0,42.0,?
2017-06-01 17:02:22.651629,4532.81818136,0,4227.84848443,0,3858.99999961,0,3874.96969658,0,4246.90909048,0,4420.51515107,0,4147.48484807,0,4297.90909048,0,4941.84848435,0,4149.54545413,0,4424.63636319,0,4219.09090867,0,4838.81818133,0,4476.1515147,0,42.0,42.0,?
2017-06-01 17:02:22.654907,4532.81818136,0,4227.84848443,0,3858.99999961,0,3874.96969658,0,4246.90909048,0,4420.51515107,0,4147.48484807,0,4297.90909048,0,4941.84848435,0,4149.54545413,0,4424.63636319,0,4219.09090867,0,4838.81818133,0,4476.1515147,0,42.0,42.0,?
2017-06-01 17:02:22.658292,4539.51515106,0,4230.93939352,0,3855.39393901,0,3863.63636325,0,4239.18181776,0,4415.36363592,0,4144.90909049,0,4294.30302987,0,4928.45454496,0,4145.42424201,0,4430.30302986,0,4219.09090867,0,4842.42424194,0,4482.8484844,0,42.0,42.0,?
2017-06-01 17:02:22.661178,4526.63636318,0,4224.24242382,0,3869.81818143,0,3871.87878749,0,4249.99999958,0,4415.36363592,0,4149.54545413,0,4302.54545412,0,4944.42424193,0,4159.84848443,0,4423.60606016,0,4219.60606018,0,4834.69696921,0,4470.48484804,0,42.0,42.0,?
2017-06-01 17:02:22.664506,4541.06060561,0,4227.84848443,0,3878.57575719,0,3885.7878784,0,4252.57575715,0,4421.5454541,0,4154.18181777,0,4307.69696927,0,4959.36363587,0,4172.72727231,0,4430.30302986,0,4224.24242382,0,4846.03030255,0,4481.81818137,0,42.0,42.0,?
2017-06-01 17:02:22.668964,4538.48484803,0,4225.78787837,0,3878.06060567,0,3886.81818143,0,4246.39393897,0,4421.5454541,0,4151.60606019,0,4308.21212078,0,4958.84848435,0,4178.90909049,0,4426.69696925,0,4221.66666624,0,4844.99999952,0,4483.36363592,0,42.0,42.0,?
2017-06-01 17:02:22.676021,4530.24242379,0,4223.21212079,0,3882.18181779,0,3882.69696931,0,4252.57575715,0,4419.48484804,0,4147.99999959,0,4308.7272723,0,4961.93939344,0,4183.03030261,0,4424.12121168,0,4218.57575715,0,4838.81818133,0,4479.24242379,0,42.0,42.0,?
2017-06-01 17:02:22.681448,4540.54545409,0,4228.36363594,0,3881.15151476,0,3882.69696931,0,4254.63636321,0,4421.5454541,0,4150.57575716,0,4307.69696927,0,4965.03030253,0,4178.90909049,0,4431.84848441,0,4221.15151473,0,4843.96969649,0,4487.48484804,0,42.0,42.0,?
2017-06-01 17:02:22.684549,4528.18181773,0,4223.7272723,0,3875.99999961,0,3883.21212082,0,4253.60606018,0,4426.18181774,0,4157.27272686,0,4312.84848442,0,4967.09090859,0,4175.30302989,0,4423.09090865,0,4219.09090867,0,4835.21212073,0,4472.03030258,0,42.0,42.0,?
2017-06-01 17:02:22.687786,4542.60606015,0,4229.90909049,0,3871.87878749,0,3876.51515113,0,4246.39393897,0,4419.99999956,0,4152.63636322,0,4312.3333329,0,4963.9999995,0,4170.15151473,0,4428.2424238,0,4220.63636321,0,4841.39393891,0,4479.75757531,0,42.0,42.0,?
2017-06-01 17:02:22.692154,4544.66666621,0,4227.84848443,0,3879.0909087,0,3880.63636325,0,4242.27272685,0,4414.84848441,0,4151.09090868,0,4311.81818139,0,4969.15151465,0,4172.72727231,0,4426.69696925,0,4223.21212079,0,4841.90909042,0,4485.42424198,0,42.0,42.0,?
2017-06-01 17:02:22.696147,4529.21212076,0,4223.7272723,0,3886.81818143,0,3890.93939355,0,4252.57575715,0,4421.03030259,0,4160.87878746,0,4319.54545411,0,4978.93939344,0,4181.99999958,0,4419.99999956,0,4221.15151473,0,4837.27272679,0,4479.24242379,0,42.0,42.0,?
2017-06-01 17:02:22.699582,4541.57575712,0,4231.45454503,0,3884.24242385,0,3887.33333294,0,4258.75757533,0,4424.12121168,0,4162.93939352,0,4319.54545411,0,4967.60606011,0,4179.42424201,0,4429.27272683,0,4219.09090867,0,4844.99999952,0,4489.5454541,0,42.0,42.0,?
2017-06-01 17:02:22.702734,4534.36363591,0,4225.27272685,0,3891.96969658,0,3893.51515113,0,4256.69696927,0,4426.18181774,0,4163.96969655,0,4319.0303026,0,4964.51515102,0,4179.93939352,0,4425.15151471,0,4217.54545412,0,4837.7878783,0,4479.75757531,0,42.0,42.0,?
2017-06-01 17:02:22.707150,4541.57575712,0,4229.39393897,0,3893.51515113,0,3897.12121173,0,4249.48484806,0,4423.60606016,0,4164.48484807,0,4320.06060563,0,4974.81818132,0,4186.1212117,0,4429.27272683,0,4221.15151473,0,4843.96969649,0,4485.93939349,0,42.0,42.0,?
2017-06-01 17:02:22.710283,4540.54545409,0,4230.93939352,0,3883.21212082,0,3884.75757537,0,4249.48484806,0,4416.90909047,0,4161.90909049,0,4316.96969654,0,4977.3939389,0,4186.63636322,0,4428.75757531,0,4222.18181776,0,4843.45454497,0,4489.5454541,0,42.0,42.0,?
2017-06-01 17:02:22.717278,4525.60606015,0,4224.75757534,0,3885.27272688,0,3884.24242385,0,4254.1212117,0,4419.48484804,0,4162.42424201,0,4316.45454502,0,4976.87878738,0,4183.54545413,0,4423.09090865,0,4219.60606018,0,4831.60606012,0,4476.66666622,0,42.0,42.0,?
2017-06-01 17:02:22.722228,4542.60606015,0,4230.93939352,0,3891.96969658,0,3897.63636325,0,4253.09090867,0,4426.18181774,0,4161.90909049,0,4316.96969654,0,4979.45454496,0,4182.5151511,0,4429.78787834,0,4222.18181776,0,4843.45454497,0,4488.51515107,0,42.0,42.0,?
2017-06-01 17:02:22.730266,4538.48484803,0.0,4225.78787837,0,3890.42424204,0,3899.69696931,0,4248.96969654,0,4424.12121168,0,4161.39393898,0,4320.06060563,0,4985.63636314,0,4190.24242382,0,4419.99999956,0,4221.66666624,0,4842.42424194,0,4481.81818137,0,42.0,42.0,?
2017-06-01 17:02:22.739875,4542.09090864,0.0,4226.30302988,0.0,3877.03030264,0,3883.21212082,0,4243.81818139,0,4415.87878744,0,4157.27272686,0,4317.99999957,0,4981.51515102,0,4186.63636322,0,4422.57575713,0,4221.15151473,0,4843.96969649,0,4478.72727228,0,42.0,42.0,?
2017-06-01 17:02:22.746506,4541.57575712,0.0,4231.96969655,0.0,3873.93939355,0,3884.24242385,0,4248.96969654,0,4416.90909047,0,4155.2121208,0,4313.87878745,0,4973.78787829,0,4178.90909049,0,4429.27272683,0,4222.18181776,0,4844.484848,0,4481.81818137,1541.33333318,42.0,42.0,?
2017-06-01 17:02:22.754549,4526.12121167,0.0,4227.33333291,0.0,3881.66666628,98.9090908992,3897.12121173,0,4253.60606018,0,4424.12121168,0,4160.87878746,0,4317.48484805,0,4972.24242375,0,4181.99999958,0,4424.12121168,0,4221.15151473,0,4834.1818177,0,4472.5454541,1541.33333318,42.0,42.0,?
2017-06-01 17:02:22.761102,4543.63636318,0.0,4229.39393897,0.0,3872.90909052,98.9090908992,3884.24242385,20.606060604,4245.36363594,0,4418.45454501,0,4159.33333292,0,4314.90909048,0,4967.60606011,0,4175.30302989,0,4433.39393895,0,4223.21212079,0,4845.51515103,0,4482.33333289,1541.33333318,42.0,42.0,?
2017-06-01 17:02:22.770377,4537.454545,0.0,4225.27272685,0.0,3872.39393901,98.9090908992,3879.0909087,20.606060604,4249.48484806,4100.6060602,4415.36363592,0,4157.78787837,0,4315.42424199,0,4966.06060556,0,4170.66666625,0,4428.75757531,0,4223.21212079,0,4843.45454497,0,4476.66666622,1541.33333318,42.0,42.0,?
2017-06-01 17:02:22.780277,4533.8484844,0.0,4228.36363594,0.0,3880.63636325,98.9090908992,3888.36363597,20.606060604,4257.7272723,4100.6060602,4420.51515107,2855.99999971,4159.33333292,0,4315.42424199,0,4963.9999995,0,4176.33333292,0,4427.72727228,0,4220.1212117,0,4841.39393891,0,4479.24242379,1541.33333318,42.0,42.0,?
2017-06-01 17:02:22.786497,4539.51515106,0.0,4230.424242,0.0,3874.45454507,98.9090908992,3882.69696931,20.606060604,4250.51515109,4100.6060602,4415.36363592,2855.99999971,4157.27272686,2649.93939367,4307.18181775,0,4957.30302981,0,4172.21212079,0,4431.33333289,0,4218.57575715,0,4845.51515103,0,4486.45454501,1541.33333318,42.0,42.0,?
2017-06-01 17:02:22.794989,4525.09090864,0.0,4220.1212117,0.0,3868.27272689,98.9090908992,3873.93939355,20.606060604,4238.66666624,4100.6060602,4407.12121168,2855.99999971,4153.15151474,2649.93939367,4303.57575715,1858.66666648,4953.6969692,0,4162.93939352,0,4422.06060562,0,4220.1212117,0,4835.21212073,0,4470.48484804,1541.33333318,42.0,42.0,?
2017-06-01 17:02:22.801273,4540.54545409,0.0,4229.39393897,0.0,3877.54545416,98.9090908992,3877.54545416,20.606060604,4237.1212117,4100.6060602,4414.84848441,2855.99999971,4159.33333292,2649.93939367,4311.81818139,1858.66666648,4960.3939389,2810.66666639,4163.96969655,0,4428.75757531,0,4222.18181776,0,4844.484848,0,4485.42424198,1541.33333318,42.0,42.0,?
2017-06-01 17:02:22.809657,4541.06060561,0.0,4229.90909049,0.0,3892.4848481,98.9090908992,3891.45454507,20.606060604,4258.24242382,4100.6060602,4432.87878744,2855.99999971,4179.93939352,2649.93939367,4328.30302987,1858.66666648,4978.42424193,2810.66666639,4178.90909049,3762.66666629,4424.63636319,0,4219.09090867,0,4845.51515103,0,4485.93939349,1541.33333318,42.0,42.0,?
2017-06-01 17:02:22.817133,4534.87878743,0.0,4223.21212079,0.0,3891.96969658,98.9090908992,3897.12121173,20.606060604,4270.09090866,4100.6060602,4436.48484804,2855.99999971,4191.78787837,2649.93939367,4333.96969654,1858.66666648,4981.51515102,2810.66666639,4186.1212117,3762.66666629,4421.03030259,0.0,4219.60606018,0,4841.39393891,0,4479.24242379,1541.33333318,42.0,42.0,?
2017-06-01 17:02:22.824308,4541.06060561,0.0,4226.8181814,0.0,3890.93939355,98.9090908992,3897.12121173,20.606060604,4259.27272685,4100.6060602,4427.72727228,2855.99999971,4192.8181814,2649.93939367,4335.51515108,1858.66666648,4978.42424193,2810.66666639,4189.72727231,3762.66666629,4431.33333289,0.0,4224.75757534,12.3636363624,4843.45454497,0,4490.06060561,1541.33333318,42.0,42.0,?
2017-06-01 17:02:22.832797,4529.21212076,0.0,4225.27272685,0.0,3901.75757537,98.9090908992,3896.0909087,20.606060604,4258.24242382,4100.6060602,4426.18181774,2855.99999971,4195.39393897,2649.93939367,4344.78787835,1858.66666648,4994.90909041,2810.66666639,4201.06060564,3762.66666629,4425.66666622,0.0,4223.7272723,12.3636363624,4836.75757527,0.0,4481.30302985,1541.33333318,42.0,42.0,?
2017-06-01 17:02:22.840562,4544.1515147,0.0,4229.39393897,0.0,3894.03030264,98.9090908992,3881.15151476,20.606060604,4258.24242382,4100.6060602,4423.60606016,2855.99999971,4184.06060564,2649.93939367,4337.06060563,1858.66666648,4992.33333283,2810.66666639,4195.90909049,3770.90909053,4429.78787834,0.0,4222.18181776,12.3636363624,4846.03030255,0.0,4487.99999955,1541.33333318,42.0,42.0,?
2017-06-01 17:02:22.847902,4541.57575712,0.0,4226.30302988,0.0,3888.87878749,98.9090908992,3890.42424204,20.606060604,4264.93939351,4100.6060602,4428.2424238,2855.99999971,4181.48484807,2649.93939367,4333.45454502,1858.66666648,4983.57575708,2810.66666639,4189.72727231,3770.90909053,4426.69696925,0.0,4220.63636321,12.3636363624,4843.96969649,0.0,4486.96969652,1541.33333318,42.0,42.0,?
2017-06-01 17:02:22.855109,4531.27272682,0.0,4226.8181814,0.0,3900.72727234,98.9090908992,3917.21212082,20.606060604,4281.93939351,4100.6060602,4444.72727228,2855.99999971,4196.93939352,2649.93939367,4351.48484805,1858.66666648,4993.36363586,2810.66666639,4201.57575716,3770.90909053,4423.60606016,0.0,4221.15151473,12.3636363624,4838.30302982,0.0,4485.42424198,1541.33333318,42.0,42.0,?
2017-06-01 17:02:22.864923,4543.63636318,0.0,4232.99999958,0.0,3902.27272688,98.9090908992,3911.54545415,20.606060604,4280.39393897,4100.6060602,4448.8484844,2855.99999971,4198.48484806,2649.93939367,4357.15151472,1858.66666648,4999.54545405,2810.66666639,4205.69696928,3770.90909053,4429.78787834,0.0,4224.75757534,12.3636363624,4847.06060558,0.0,4498.81818137,1541.33333318,42.0,42.0,?
2017-06-01 17:02:22.871613,4531.27272682,0.0,4223.7272723,0.0,3898.15151476,98.9090908992,3897.12121173,20.606060604,4270.60606018,4100.6060602,4443.69696925,2855.99999971,4193.84848443,2649.93939367,4351.99999956,1858.66666648,5001.09090859,2810.66666639,4203.63636322,3770.90909053,4419.99999956,0.0,4221.15151473,12.3636363624,4840.87878739,0.0,4483.36363592,1541.33333318,42.0,42.0,?
2017-06-01 17:02:22.879207,4541.06060561,0.0,4229.39393897,0.0,3896.0909087,98.9090908992,3898.15151476,20.606060604,4270.60606018,4100.6060602,4440.60606016,2855.99999971,4192.30302988,2649.93939367,4348.39393896,1858.66666648,4989.75757526,2810.66666639,4198.99999958,3770.90909053,4427.21212077,0.0,4219.60606018,12.3636363624,4845.51515103,0.0,4486.45454501,1541.33333318,42.0,42.0,?
2017-06-01 17:02:22.889205,4542.60606015,0.0,4230.424242,0.0,3898.15151476,98.9090908992,3903.81818143,20.606060604,4272.15151472,4100.6060602,4439.57575713,2855.99999971,4190.24242382,2649.93939367,4346.84848441,1858.66666648,4978.93939344,2810.66666639,4196.93939352,3770.90909053,4429.78787834,0.0,4220.1212117,12.3636363624,4842.93939346,0.0,4491.09090864,1541.33333318,42.0,42.0,?
2017-06-01 17:02:22.894241,4527.66666621,0.0,4223.21212079,0.0,3900.21212082,98.9090908992,3907.42424203,20.606060604,4274.21212078,4100.6060602,4438.5454541,2855.99999971,4188.18181776,2649.93939367,4347.36363593,1858.66666648,4993.87878738,2810.66666639,4201.57575716,3770.90909053,4421.03030259,0.0,4219.09090867,12.3636363624,4837.27272679,0.0,4482.8484844,1541.33333318,42.0,42.0,?
2017-06-01 17:02:22.902195,4537.96969652,0.0,4230.93939352,0.0,3898.15151476,98.9090908992,3904.33333294,20.606060604,4276.78787836,4100.6060602,4435.96969653,2855.99999971,4183.03030261,2649.93939367,4343.24242381,1858.66666648,4999.03030253,2810.66666639,4199.5151511,3770.90909053,4427.21212077,0.0,4220.63636321,12.3636363624,4849.63636315,0.0,4490.57575713,1541.33333318,42.0,42.0,?
2017-06-01 17:02:22.910942,4530.24242379,0.0,4225.27272685,0.0,3900.72727234,98.9090908992,3904.33333294,20.606060604,4275.75757533,4100.6060602,4438.5454541,2855.99999971,4184.57575716,2649.93939367,4342.21212078,1858.66666648,4986.66666617,2810.66666639,4201.57575716,3770.90909053,4423.09090865,0.0,4221.66666624,12.3636363624,4840.87878739,0.0,4482.8484844,1541.33333318,42.0,42.0,?
2017-06-01 17:02:22.918349,4538.48484803,0.0,4224.24242382,0.0,3897.63636325,98.9090908992,3902.7878784,20.606060604,4263.39393897,4100.6060602,4438.03030259,2855.99999971,4183.03030261,2649.93939367,4334.99999957,1858.66666648,4977.90909041,2810.66666639,4201.57575716,3770.90909053,4427.72727228,0.0,4223.21212079,12.3636363624,4840.36363588,0.0,4489.5454541,1541.33333318,42.0,42.0,?
2017-06-01 17:02:22.928211,4543.12121167,0.0,4226.8181814,0.0,3897.12121173,98.9090908992,3903.30302991,20.606060604,4265.45454503,4100.6060602,4439.57575713,2855.99999971,4181.48484807,2649.93939367,4332.93939351,1858.66666648,4988.21212071,2810.66666639,4201.06060564,3770.90909053,4428.2424238,0.0,4221.66666624,12.3636363624,4844.99999952,0.0,4491.60606016,1541.33333318,42.0,42.0,?
2017-06-01 17:02:22.935042,4530.7575753,0.0,4225.27272685,0.0,3913.0909087,98.9090908992,3916.18181779,20.606060604,4289.15151472,4100.6060602,4456.06060561,2855.99999971,4198.48484806,2649.93939367,4352.51515108,1858.66666648,5006.75757526,2810.66666639,4212.90909049,3770.90909053,4421.5454541,0.0,4219.60606018,12.3636363624,4839.84848436,0.0,4479.75757531,1541.33333318,42.0,42.0,?
2017-06-01 17:02:22.941240,4544.66666621,0.0,4232.48484806,0.0,3915.66666628,98.9090908992,3919.7878784,20.606060604,4292.24242381,4100.6060602,4463.27272683,2855.99999971,4204.15151473,2649.93939367,4358.18181775,1858.66666648,5005.21212071,2810.66666639,4212.90909049,3770.90909053,4430.81818138,0.0,4220.63636321,12.3636363624,4847.06060558,0.0,4495.21212076,1541.33333318,42.0,42.0,?
2017-06-01 17:02:22.949792,4536.93939349,0.0,4226.8181814,0.0,3909.48484809,98.9090908992,3912.06060567,20.606060604,4287.09090866,4100.6060602,4458.12121168,2855.99999971,4194.36363594,2649.93939367,4346.84848441,1858.66666648,4999.03030253,2810.66666639,4206.21212079,3770.90909053,4424.63636319,0.0,4219.60606018,12.3636363624,4840.87878739,0.0,4488.51515107,1541.33333318,42.0,42.0,?
2017-06-01 17:02:22.957190,4538.48484803,0.0,4228.87878746,0.0,3911.54545415,98.9090908992,3911.03030264,20.606060604,4289.66666624,4100.6060602,4456.57575713,2855.99999971,4197.96969655,2649.93939367,4344.27272684,1858.66666648,5002.12121162,2810.66666639,4208.78787837,3770.90909053,4424.12121168,0.0,4222.18181776,12.3636363624,4842.93939346,0.0,4484.90909046,1541.33333318,42.0,42.0,?
2017-06-01 17:02:22.967045,4543.12121167,0.0,4231.45454503,0.0,3914.63636324,98.9090908992,3918.75757537,20.606060604,4290.18181775,4100.6060602,4455.5454541,2855.99999971,4207.24242382,2649.93939367,4351.48484805,1858.66666648,5004.18181768,2810.66666639,4211.36363594,3770.90909053,4429.78787834,0.0,4223.7272723,12.3636363624,4844.484848,0.0,4492.63636319,1541.33333318,42.0,42.0,?
2017-06-01 17:02:22.973249,4527.1515147,0.0,4223.7272723,0.0,3914.63636324,98.9090908992,3923.90909052,20.606060604,4293.27272684,4100.6060602,4455.03030258,2855.99999971,4208.27272685,2649.93939367,4355.60606017,1858.66666648,5002.12121162,2810.66666639,4207.24242382,3770.90909053,4423.60606016,0.0,4223.21212079,12.3636363624,4834.1818177,0.0,4482.33333289,1541.33333318,42.0,42.0,?
2017-06-01 17:02:22.982163,4541.06060561,0.0,4229.39393897,0.0,3909.48484809,98.9090908992,3919.27272688,20.606060604,4285.54545412,4100.6060602,4451.93939349,2855.99999971,4203.1212117,2649.93939367,4349.42424199,1858.66666648,4990.78787829,2810.66666639,4198.99999958,3770.90909053,4429.78787834,0.0,4224.24242382,12.3636363624,4846.54545406,0.0,4490.57575713,1541.33333318,42.0,42.0,?
2017-06-01 17:02:22.988800,4537.454545,0.0,4225.78787837,0.0,3907.42424203,98.9090908992,3918.24242385,20.606060604,4272.66666624,4100.6060602,4442.66666622,2855.99999971,4201.57575716,2649.93939367,4348.39393896,1858.66666648,4988.72727223,2810.66666639,4199.5151511,3770.90909053,4423.09090865,0.0,4219.60606018,12.3636363624,4844.99999952,0.0,4484.39393895,1541.33333318,42.0,42.0,?
2017-06-01 17:02:22.996424,4535.39393894,0.0,4226.30302988,0.0,3904.33333294,98.9090908992,3914.63636324,20.606060604,4270.09090866,4100.6060602,4437.51515107,2855.99999971,4196.93939352,2649.93939367,4349.9393935,1858.66666648,4993.87878738,2810.66666639,4202.09090867,3770.90909053,4422.06060562,0.0,4221.15151473,12.3636363624,4840.36363588,0.0,4485.42424198,1541.33333318,42.0,42.0,?
2017-06-01 17:02:23.005979,4542.09090864,0.0,4230.93939352,0.0,3904.33333294,98.9090908992,3914.63636324,20.606060604,4277.81818139,4100.6060602,4444.21212077,2855.99999971,4192.8181814,2649.93939367,4351.48484805,1858.66666648,4996.96969647,2810.66666639,4207.24242382,3770.90909053,4430.30302986,0.0,4226.8181814,12.3636363624,4843.96969649,0.0,4494.69696925,1541.33333318,42.0,42.0,?
2017-06-01 17:02:23.014063,4528.69696924,0.0,4222.69696927,0.0,3914.63636324,98.9090908992,3926.48484809,20.606060604,4286.06060563,4100.6060602,4452.45454501,2855.99999971,4198.48484806,2649.93939367,4359.21212078,1858.66666648,5004.18181768,2810.66666639,4220.63636321,3770.90909053,4424.12121168,0.0,4223.7272723,12.3636363624,4834.69696921,0.0,4479.75757531,1541.33333318,42.0,42.0,?
2017-06-01 17:02:23.020295,4541.57575712,0.0,4227.84848443,0.0,3913.0909087,98.9090908992,3921.33333294,20.606060604,4281.93939351,4100.6060602,4445.2424238,2855.99999971,4196.424242,2649.93939367,4354.57575714,1858.66666648,5004.6969692,2810.66666639,4221.15151473,3770.90909053,4429.78787834,0.0,4221.15151473,12.3636363624,4843.96969649,0.0,4491.60606016,1541.33333318,42.0,42.0,?
2017-06-01 17:02:23.027666,4537.96969652,0.0,4227.33333291,0.0,3911.54545415,98.9090908992,3915.66666628,20.606060604,4279.36363594,4100.6060602,4436.48484804,2855.99999971,4193.33333291,2649.93939367,4348.90909047,1858.66666648,5004.6969692,2810.66666639,4219.60606018,3770.90909053,4426.18181774,0.0,4221.66666624,12.3636363624,4842.42424194,0.0,4492.63636319,1541.33333318,42.0,42.0,?
2017-06-01 17:02:23.035562,4532.30302985,0.0,4224.75757534,0.0,3917.21212082,98.9090908992,3918.75757537,20.606060604,4280.90909048,4100.6060602,4438.03030259,2855.99999971,4192.30302988,2649.93939367,4351.99999956,1858.66666648,5007.27272677,2810.66666639,4225.78787837,3770.90909053,4425.66666622,0.0,4221.66666624,12.3636363624,4838.30302982,0.0,4485.42424198,1541.33333318,42.0,42.0,?
2017-06-01 17:02:23.045222,4543.12121167,0.0,4228.36363594,0.0,3916.69696931,98.9090908992,3915.15151476,20.606060604,4280.39393897,4100.6060602,4440.09090865,2855.99999971,4187.15151473,2649.93939367,4346.84848441,1858.66666648,5003.15151465,2810.66666639,4226.30302988,3770.90909053,4432.87878744,0.0,4221.15151473,12.3636363624,4847.57575709,0.0,4493.66666622,1541.33333318,42.0,42.0,?
2017-06-01 17:02:23.051417,4530.24242379,0.0,4221.66666624,0.0,3917.21212082,98.9090908992,3919.27272688,20.606060604,4283.99999957,4100.6060602,4446.78787834,2855.99999971,4192.8181814,2649.93939367,4347.87878744,1858.66666648,5002.12121162,2810.66666639,4226.8181814,3770.90909053,4422.06060562,0.0,4219.60606018,12.3636363624,4839.33333285,0.0,4481.81818137,1541.33333318,42.0,42.0,?
2017-06-01 17:02:23.059254,4544.1515147,0.0,4229.39393897,0.0,3917.21212082,98.9090908992,3922.87878749,20.606060604,4281.424242,4100.6060602,4448.8484844,2855.99999971,4197.45454503,2649.93939367,4351.48484805,1858.66666648,5004.6969692,2810.66666639,4227.33333291,3770.90909053,4428.2424238,0.0,4220.63636321,12.3636363624,4844.99999952,0.0,4489.03030258,1541.33333318,42.0,42.0,?
2017-06-01 17:02:23.068937,4544.66666621,0.0,4229.90909049,0.0,3916.69696931,98.9090908992,3917.72727234,20.606060604,4278.33333291,4100.6060602,4442.66666622,2855.99999971,4192.8181814,2649.93939367,4349.9393935,1858.66666648,5011.39393889,2810.66666639,4228.36363594,3770.90909053,4429.27272683,0.0,4220.1212117,12.3636363624,4844.99999952,0.0,4490.57575713,1541.33333318,42.0,42.0,?
2017-06-01 17:02:23.074861,4530.24242379,0.0,4225.78787837,0.0,3910.51515112,98.9090908992,3905.87878749,20.606060604,4275.75757533,4100.6060602,4438.5454541,2855.99999971,4188.18181776,2649.93939367,4347.87878744,1858.66666648,5002.12121162,2810.66666639,4225.27272685,3770.90909053,4424.12121168,0.0,4220.1212117,12.3636363624,4838.30302982,0.0,4481.81818137,1541.33333318,42.0,42.0,?
2017-06-01 17:02:23.082318,4541.06060561,0.0,4230.93939352,0.0,3900.21212082,98.9090908992,3897.63636325,20.606060604,4269.06060563,4100.6060602,4436.99999956,2855.99999971,4187.15151473,2649.93939367,4345.30302987,1858.66666648,4981.51515102,2810.66666639,4215.99999958,3770.90909053,4430.30302986,0.0,4223.21212079,12.3636363624,4842.42424194,0.0,4490.06060561,1541.33333318,42.0,42.0,?
2017-06-01 17:02:23.091089,4531.27272682,0.0,4222.18181776,0.0,3908.96969658,98.9090908992,3910.51515112,20.606060604,4274.21212078,4100.6060602,4439.57575713,2855.99999971,4190.24242382,2649.93939367,4348.39393896,1858.66666648,4990.27272677,2810.66666639,4216.51515109,3770.90909053,4422.57575713,0.0,4220.1212117,12.3636363624,4835.72727224,0.0,4482.33333289,1541.33333318,42.0,42.0,?
2017-06-01 17:02:23.098417,4540.03030258,0.0,4226.30302988,0.0,3912.57575718,98.9090908992,3916.18181779,20.606060604,4276.27272685,4100.6060602,4437.51515107,2855.99999971,4186.1212117,2649.93939367,4348.39393896,1858.66666648,4996.96969647,2810.66666639,4213.424242,3770.90909053,4427.72727228,0.0,4220.1212117,12.3636363624,4845.51515103,0.0,4489.5454541,1541.33333318,42.0,42.0,?
2017-06-01 17:02:23.108004,4543.12121167,0.0,4230.93939352,0.0,3908.96969658,98.9090908992,3912.06060567,20.606060604,4273.18181775,4100.6060602,4435.45454501,2855.99999971,4187.66666625,2649.93939367,4347.36363593,1858.66666648,4990.78787829,2810.66666639,4206.21212079,3770.90909053,4427.72727228,0.0,4222.69696927,12.3636363624,4846.54545406,0.0,4489.03030258,1541.33333318,42.0,42.0,?
2017-06-01 17:02:23.113323,4530.7575753,0.0,4225.78787837,0.0,3916.69696931,98.9090908992,3914.12121173,20.606060604,4279.36363594,4100.6060602,4439.57575713,2855.99999971,4194.36363594,2649.93939367,4350.45454502,1858.66666648,4997.9999995,2810.66666639,4209.8181814,3770.90909053,4421.5454541,0.0,4219.60606018,12.3636363624,4836.75757527,0.0,4478.72727228,1541.33333318,42.0,42.0,?
2017-06-01 17:02:23.121309,4543.63636318,0.0,4229.90909049,0.0,3915.66666628,98.9090908992,3912.06060567,20.606060604,4278.33333291,4100.6060602,4440.09090865,2855.99999971,4190.75757534,2649.93939367,4347.87878744,1858.66666648,5000.06060556,2810.66666639,4215.99999958,3770.90909053,4430.81818138,0.0,4219.09090867,12.3636363624,4846.54545406,0.0,4492.12121167,1541.33333318,42.0,42.0,?
2017-06-01 17:02:23.129903,4534.87878743,0.0,4225.27272685,0.0,3903.30302991,98.9090908992,3906.393939,20.606060604,4274.21212078,4100.6060602,4438.03030259,2855.99999971,4189.72727231,2649.93939367,4346.84848441,1858.66666648,4997.48484799,2810.66666639,4215.48484806,3770.90909053,4424.12121168,0.0,4219.60606018,12.3636363624,4841.39393891,0.0,4483.36363592,1541.33333318,42.0,42.0,?
2017-06-01 17:02:23.138402,4540.03030258,0.0,4227.33333291,0.0,3897.63636325,98.9090908992,3900.72727234,20.606060604,4266.99999957,4100.6060602,4434.9393935,2855.99999971,4186.1212117,2649.93939367,4344.27272684,1858.66666648,4990.78787829,2810.66666639,4201.06060564,3770.90909053,4425.66666622,0.0,4222.69696927,12.3636363624,4843.45454497,0.0,4485.93939349,1541.33333318,42.0,42.0,?
2017-06-01 17:02:23.145847,4544.66666621,0.0,4227.84848443,0.0,3908.96969658,98.9090908992,3902.7878784,20.606060604,4264.424242,4100.6060602,4436.48484804,2855.99999971,4180.45454504,2649.93939367,4342.21212078,1858.66666648,4982.03030253,2810.66666639,4198.48484806,3770.90909053,4428.75757531,0.0,4223.21212079,12.3636363624,4847.06060558,0.0,4494.18181773,1541.33333318,42.0,42.0,?
2017-06-01 17:02:23.154474,4530.7575753,0.0,4222.69696927,0.0,3918.24242385,98.9090908992,3907.93939355,20.606060604,4271.63636321,4100.6060602,4445.2424238,2855.99999971,4188.18181776,2649.93939367,4345.30302987,1858.66666648,4987.18181768,2810.66666639,4212.90909049,3770.90909053,4420.51515107,0.0,4222.18181776,12.3636363624,4838.30302982,0.0,4480.78787834,1541.33333318,42.0,42.0,?
2017-06-01 17:02:23.163440,4546.21212076,0.0,4232.48484806,0.0,3912.06060567,98.9090908992,3902.7878784,20.606060604,4273.18181775,4100.6060602,4446.78787834,2855.99999971,4195.39393897,2649.93939367,4348.39393896,1858.66666648,4994.90909041,2810.66666639,4213.424242,3770.90909053,4430.30302986,0.0,4223.7272723,12.3636363624,4848.09090861,0.0,4492.63636319,1541.33333318,42.0,42.0,?
2017-06-01 17:02:23.169003,4537.454545,0.0,4228.36363594,0.0,3920.30302991,98.9090908992,3911.03030264,20.606060604,4282.45454503,4100.6060602,4451.93939349,2855.99999971,4198.48484806,2649.93939367,4356.6363632,1858.66666648,5002.63636314,2810.66666639,4213.424242,3770.90909053,4428.2424238,0.0,4223.21212079,12.3636363624,4844.484848,0.0,4491.09090864,1541.33333318,42.0,42.0,?
2017-06-01 17:02:23.176464,4537.96969652,0.0,4228.36363594,0.0,3924.93939355,98.9090908992,3922.36363597,20.606060604,4287.60606018,4100.6060602,4455.03030258,2855.99999971,4198.48484806,2649.93939367,4356.6363632,1858.66666648,5003.15151465,2810.66666639,4216.51515109,3770.90909053,4428.2424238,0.0,4223.7272723,12.3636363624,4845.51515103,0.0,4492.12121167,1541.33333318,42.0,42.0,?
2017-06-01 17:02:23.184407,4546.21212076,0.0,4232.99999958,0.0,3914.63636324,98.9090908992,3915.66666628,20.606060604,4282.45454503,4100.6060602,4445.2424238,2855.99999971,4194.36363594,2649.93939367,4347.36363593,1858.66666648,4999.03030253,2810.66666639,4217.54545412,3770.90909053,4430.81818138,0.0,4223.7272723,12.3636363624,4851.1818177,0.0,4498.81818137,1541.33333318,42.0,42.0,?
2017-06-01 17:02:23.193037,4523.54545409,0.0,4220.1212117,0.0,3919.7878784,98.9090908992,3911.03030264,20.606060604,4287.09090866,4100.6060602,4440.60606016,2855.99999971,4193.33333291,2649.93939367,4349.42424199,1858.66666648,5002.63636314,2810.66666639,4223.7272723,3770.90909053,4417.9393935,0.0,4222.18181776,12.3636363624,4835.21212073,0.0,4478.72727228,1541.33333318,42.0,42.0,?
2017-06-01 17:02:23.199385,4549.30302985,0.0,4230.93939352,0.0,3914.12121173,98.9090908992,3903.30302991,20.606060604,4276.27272685,4100.6060602,4435.96969653,2855.99999971,4178.90909049,2649.93939367,4338.60606017,1858.66666648,4986.15151465,2810.66666639,4205.18181776,3770.90909053,4432.36363592,0.0,4224.24242382,12.3636363624,4843.96969649,0.0,4494.69696925,1541.33333318,42.0,42.0,?
2017-06-01 17:02:23.207327,4556.51515106,0.0,4235.57575715,0.0,3898.66666628,98.9090908992,3898.15151476,20.606060604,4259.27272685,4100.6060602,4429.27272683,2855.99999971,4167.06060564,2649.93939367,4326.24242381,1858.66666648,4971.21212072,2810.66666639,4186.63636322,3770.90909053,4434.42424198,0.0,4221.66666624,12.3636363624,4846.54545406,0.0,4495.21212076,1541.33333318,42.0,42.0,?
2017-06-01 17:02:23.217188,4530.24242379,0.0,4225.27272685,0.0,3904.33333294,98.9090908992,3906.393939,20.606060604,4265.96969654,4100.6060602,4436.48484804,2855.99999971,4181.48484807,2649.93939367,4340.15151472,1858.66666648,4987.18181768,2810.66666639,4202.60606019,3770.90909053,4422.57575713,0.0,4219.09090867,12.3636363624,4837.27272679,0.0,4477.69696925,1541.33333318,42.0,42.0,?
2017-06-01 17:02:23.223465,4542.60606015,0.0,4230.93939352,0.0,3914.12121173,98.9090908992,3907.93939355,20.606060604,4277.30302988,4100.6060602,4447.30302986,2855.99999971,4193.84848443,2649.93939367,4350.96969653,1858.66666648,4997.9999995,2810.66666639,4211.87878746,3770.90909053,4431.33333289,0.0,4220.1212117,12.3636363624,4845.51515103,0.0,4494.69696925,1541.33333318,42.0,42.0,?
2017-06-01 17:02:23.231826,4537.454545,4.1212121208,4227.84848443,0.0,3918.75757537,98.9090908992,3915.15151476,20.606060604,4287.09090866,4100.6060602,4453.48484804,2855.99999971,4197.96969655,2649.93939367,4348.90909047,1858.66666648,4990.78787829,2810.66666639,4206.21212079,3770.90909053,4426.18181774,0.0,4220.1212117,12.3636363624,4840.36363588,0.0,4486.45454501,1541.33333318,42.0,42.0,?
2017-06-01 17:02:23.238356,4543.12121167,4.1212121208,4229.39393897,0.0,3916.18181779,98.9090908992,3923.90909052,20.606060604,4293.27272684,4100.6060602,4461.21212077,2855.99999971,4204.15151473,2649.93939367,4347.87878744,1858.66666648,4987.6969692,2810.66666639,4204.15151473,3770.90909053,4428.2424238,0.0,4223.21212079,12.3636363624,4845.51515103,0.0,4485.93939349,1541.33333318,42.0,42.0,?
2017-06-01 17:02:23.248452,4549.30302985,4.1212121208,4231.45454503,0.0,3913.60606021,98.9090908992,3916.18181779,20.606060604,4298.42424199,4100.6060602,4469.45454501,2855.99999971,4210.33333291,2649.93939367,4355.09090866,1858.66666648,4997.9999995,2810.66666639,4211.87878746,3770.90909053,4431.33333289,0.0,4223.7272723,12.3636363624,4849.12121164,0.0,4492.12121167,1516.60606045,42.0,42.0,?
2017-06-01 17:02:23.254491,4536.42424197,4.1212121208,4227.33333291,0.0,3918.75757537,98.9090908992,3909.99999961,20.606060604,4301.51515109,4100.6060602,4471.51515107,2855.99999971,4209.8181814,2649.93939367,4361.27272684,1858.66666648,5007.27272677,2810.66666639,4219.60606018,3770.90909053,4424.63636319,0.0,4221.15151473,12.3636363624,4841.90909042,0.0,4484.90909046,1516.60606045,42.0,42.0,?
2017-06-01 17:02:23.262460,4547.7575753,4.1212121208,4234.03030261,0.0,3918.75757537,98.9090908992,3911.03030264,16.4848484832,4293.78787836,4100.6060602,4465.33333289,2855.99999971,4199.5151511,2649.93939367,4353.03030259,1858.66666648,4997.9999995,2810.66666639,4210.33333291,3770.90909053,4432.36363592,0.0,4223.21212079,12.3636363624,4847.57575709,0.0,4498.81818137,1516.60606045,42.0,42.0,?
2017-06-01 17:02:23.273696,4542.09090864,4.1212121208,4229.90909049,0.0,3913.0909087,98.9090908992,3910.51515112,16.4848484832,4285.54545412,4092.36363595,4461.72727228,2855.99999971,4197.45454503,2649.93939367,4349.9393935,1858.66666648,4994.90909041,2810.66666639,4200.03030261,3770.90909053,4427.72727228,0.0,4221.66666624,12.3636363624,4840.87878739,0.0,4488.51515107,1516.60606045,42.0,42.0,?
2017-06-01 17:02:23.279186,4543.63636318,4.1212121208,4228.87878746,0.0,3901.24242385,98.9090908992,3902.7878784,16.4848484832,4282.45454503,4092.36363595,4457.60606016,2855.99999971,4205.69696928,2649.93939367,4355.09090866,1858.66666648,5003.66666617,2810.66666639,4201.57575716,3770.90909053,4426.18181774,0.0,4220.63636321,12.3636363624,4842.93939346,0.0,4480.27272682,1516.60606045,42.0,42.0,?
2017-06-01 17:02:23.285408,4545.18181773,4.1212121208,4229.39393897,0.0,3899.69696931,98.9090908992,3907.42424203,16.4848484832,4281.424242,4092.36363595,4455.03030258,2855.99999971,4213.424242,2637.57575731,4361.27272684,1858.66666648,5009.33333283,2810.66666639,4217.03030261,3770.90909053,4426.69696925,0.0,4221.66666624,12.3636363624,4844.484848,0.0,4486.96969652,1516.60606045,42.0,42.0,?
2017-06-01 17:02:23.294031,4533.8484844,4.1212121208,4225.27272685,0.0,3912.57575718,98.9090908992,3917.72727234,16.4848484832,4279.36363594,4092.36363595,4456.57575713,2855.99999971,4214.45454503,2637.57575731,4365.39393896,1858.66666648,5011.90909041,2810.66666639,4230.424242,3770.90909053,4419.99999956,0.0,4220.1212117,12.3636363624,4834.69696921,0.0,4484.39393895,1516.60606045,42.0,42.0,?
2017-06-01 17:02:23.301420,4541.06060561,4.1212121208,4230.93939352,0.0,3908.96969658,98.9090908992,3906.90909052,16.4848484832,4272.66666624,4092.36363595,4450.90909046,2855.99999971,4205.18181776,2637.57575731,4356.6363632,1858.66666648,5003.66666617,2802.42424214,4215.99999958,3770.90909053,4426.69696925,0.0,4221.66666624,12.3636363624,4843.96969649,0.0,4492.12121167,1516.60606045,42.0,42.0,?
2017-06-01 17:02:23.311304,4531.78787833,4.1212121208,4226.30302988,0.0,3900.21212082,98.9090908992,3899.18181779,16.4848484832,4271.63636321,4092.36363595,4444.72727228,2855.99999971,4202.09090867,2637.57575731,4350.45454502,1858.66666648,4999.03030253,2802.42424214,4204.66666625,3758.54545417,4422.57575713,0.0,4222.18181776,12.3636363624,4840.87878739,0.0,4481.30302985,1516.60606045,42.0,42.0,?
2017-06-01 17:02:23.317984,4542.09090864,4.1212121208,4227.33333291,0.0,3900.72727234,98.9090908992,3901.24242385,16.4848484832,4270.09090866,4092.36363595,4444.72727228,2855.99999971,4202.60606019,2637.57575731,4351.48484805,1858.66666648,4998.51515102,2802.42424214,4211.36363594,3758.54545417,4423.09090865,0.0,4223.21212079,12.3636363624,4841.39393891,0.0,4486.45454501,1516.60606045,42.0,42.0,?
2017-06-01 17:02:23.325385,4546.72727227,4.1212121208,4228.36363594,0.0,3902.7878784,98.9090908992,3900.21212082,16.4848484832,4266.99999957,4092.36363595,4445.2424238,2855.99999971,4197.96969655,2637.57575731,4348.39393896,1858.66666648,4991.3030298,2802.42424214,4212.90909049,3758.54545417,4425.15151471,0.0,4224.24242382,4.1212121208,4842.42424194,0.0,4491.60606016,1516.60606045,42.0,42.0,?
2017-06-01 17:02:23.332579,4525.60606015,4.1212121208,4223.7272723,0.0,3898.66666628,98.9090908992,3899.69696931,16.4848484832,4270.60606018,4092.36363595,4444.21212077,2855.99999971,4194.87878746,2637.57575731,4346.84848441,1858.66666648,4983.57575708,2802.42424214,4203.63636322,3758.54545417,4421.03030259,0.0,4220.1212117,4.1212121208,4834.69696921,12.3636363624,4475.12121167,1516.60606045,42.0,42.0,?
2017-06-01 17:02:23.341280,4541.06060561,4.1212121208,4232.48484806,0.0,3885.7878784,98.9090908992,3895.06060567,16.4848484832,4262.87878745,4092.36363595,4436.99999956,2855.99999971,4188.69696928,2637.57575731,4340.15151472,1858.66666648,4973.78787829,2802.42424214,4190.75757534,3762.66666629,4429.78787834,0.0,4220.1212117,4.1212121208,4844.484848,12.3636363624,4484.39393895,1516.60606045,42.0,42.0,?
2017-06-01 17:02:23.348463,4537.454545,4.1212121208,4224.75757534,0.0,3888.87878749,98.9090908992,3896.0909087,16.4848484832,4261.84848442,4092.36363595,4435.45454501,2855.99999971,4188.69696928,2637.57575731,4337.06060563,1858.66666648,4975.84848435,2802.42424214,4193.33333291,3762.66666629,4419.99999956,8.2424242416,4220.63636321,4.1212121208,4838.30302982,12.3636363624,4478.72727228,1516.60606045,42.0,42.0,?
2017-06-01 17:02:23.358139,4533.33333288,4.1212121208,4222.18181776,0.0,3893.51515113,98.9090908992,3896.60606022,16.4848484832,4270.09090866,4092.36363595,4439.57575713,2855.99999971,4189.21212079,2637.57575731,4333.96969654,1858.66666648,4976.36363587,2802.42424214,4191.78787837,3762.66666629,4423.09090865,8.2424242416,4218.57575715,8.2424242416,4837.27272679,12.3636363624,4477.69696925,1516.60606045,42.0,42.0,?
2017-06-01 17:02:23.365503,4537.454545,4.1212121208,4227.84848443,0.0,3885.7878784,98.9090908992,3888.36363597,16.4848484832,4265.96969654,4092.36363595,4437.51515107,2855.99999971,4181.99999958,2637.57575731,4327.78787836,1858.66666648,4962.96969647,2802.42424214,4177.36363595,3762.66666629,4428.75757531,8.2424242416,4218.06060564,8.2424242416,4842.93939346,12.3636363624,4481.30302985,1516.60606045,42.0,42.0,?
2017-06-01 17:02:23.372735,4525.60606015,4.1212121208,4222.18181776,0.0,3892.99999961,98.9090908992,3892.99999961,16.4848484832,4268.0303026,4092.36363595,4442.15151471,2855.99999971,4191.27272685,2637.57575731,4338.09090866,1858.66666648,4965.54545405,2802.42424214,4182.5151511,3762.66666629,4416.90909047,8.2424242416,4221.66666624,8.2424242416,4833.15151467,12.3636363624,4468.93939349,1516.60606045,42.0,42.0,?
2017-06-01 17:02:23.383652,4539.51515106,4.1212121208,4228.36363594,0.0,3912.57575718,98.9090908992,3903.30302991,16.4848484832,4282.45454503,4092.36363595,4454.51515107,2855.99999971,4209.8181814,2637.57575731,4354.57575714,1858.66666648,4982.54545405,2802.42424214,4203.1212117,3762.66666629,4426.69696925,8.2424242416,4225.27272685,8.2424242416,4841.39393891,12.3636363624,4486.96969652,1516.60606045,42.0,42.0,?
2017-06-01 17:02:23.388654,4530.7575753,4.1212121208,4225.78787837,0.0,3926.99999961,98.9090908992,3912.57575718,16.4848484832,4288.63636321,4092.36363595,4460.18181774,2855.99999971,4220.1212117,2637.57575731,4366.42424199,1858.66666648,5003.66666617,2802.42424214,4221.66666624,3762.66666629,4424.12121168,8.2424242416,4221.15151473,8.2424242416,4838.30302982,12.3636363624,4485.42424198,1516.60606045,42.0,42.0,?
2017-06-01 17:02:23.397089,4528.69696924,4.1212121208,4226.8181814,0.0,3918.24242385,98.9090908992,3914.12121173,16.4848484832,4278.33333291,4092.36363595,4452.96969652,2855.99999971,4214.45454503,2637.57575731,4364.36363593,1858.66666648,5007.27272677,2802.42424214,4222.18181776,3762.66666629,4421.03030259,8.2424242416,4221.66666624,8.2424242416,4836.75757527,12.3636363624,4480.27272682,1516.60606045,42.0,42.0,?
2017-06-01 17:02:23.406403,4539.51515106,4.1212121208,4228.87878746,0.0,3909.48484809,98.9090908992,3908.45454506,16.4848484832,4273.18181775,4092.36363595,4444.21212077,2855.99999971,4204.66666625,2637.57575731,4354.06060563,1858.66666648,4991.81818132,2802.42424214,4213.424242,3762.66666629,4428.2424238,8.2424242416,4224.24242382,8.2424242416,4840.87878739,12.3636363624,4488.51515107,1516.60606045,42.0,42.0,?
2017-06-01 17:02:23.411435,4522.51515106,4.1212121208,4219.09090867,0.0,3922.36363597,98.9090908992,3909.99999961,16.4848484832,4283.48484806,4092.36363595,4449.36363592,2855.99999971,4207.75757534,2637.57575731,4356.6363632,1858.66666648,4993.87878738,2802.42424214,4217.03030261,3762.66666629,4420.51515107,8.2424242416,4221.15151473,8.2424242416,4832.12121164,12.3636363624,4477.69696925,1516.60606045,42.0,42.0,?
2017-06-01 17:02:23.420878,4538.48484803,4.1212121208,4229.39393897,0.0,3925.45454506,98.9090908992,3913.60606021,16.4848484832,4281.93939351,4092.36363595,4453.48484804,2855.99999971,4207.24242382,2637.57575731,4359.21212078,1858.66666648,5004.18181768,2802.42424214,4217.54545412,3762.66666629,4425.66666622,8.2424242416,4222.18181776,8.2424242416,4843.45454497,12.3636363624,4489.03030258,1516.60606045,42.0,42.0,?
2017-06-01 17:02:23.427104,4538.99999955,4.1212121208,4228.36363594,0.0,3923.393939,98.9090908992,3924.42424203,16.4848484832,4282.96969654,4092.36363595,4454.51515107,2855.99999971,4208.27272685,2637.57575731,4358.69696926,1858.66666648,5008.81818132,2802.42424214,4215.48484806,3762.66666629,4425.15151471,8.2424242416,4222.18181776,8.2424242416,4840.36363588,12.3636363624,4485.93939349,1516.60606045,42.0,42.0,?
2017-06-01 17:02:23.434482,4527.66666621,4.1212121208,4220.63636321,0.0,3922.36363597,98.9090908992,3929.06060567,16.4848484832,4294.81818139,4092.36363595,4459.66666622,2855.99999971,4209.8181814,2637.57575731,4356.12121169,1858.66666648,5002.63636314,2802.42424214,4214.45454503,3762.66666629,4423.60606016,8.2424242416,4220.63636321,8.2424242416,4835.72727224,12.3636363624,4478.72727228,1516.60606045,42.0,42.0,?
2017-06-01 17:02:23.444654,4536.93939349,4.1212121208,4228.36363594,0.0,3913.60606021,98.9090908992,3919.27272688,16.4848484832,4295.3333329,4092.36363595,4459.15151471,2855.99999971,4205.69696928,2637.57575731,4351.99999956,1858.66666648,4993.87878738,2802.42424214,4210.33333291,3762.66666629,4428.2424238,8.2424242416,4222.18181776,8.2424242416,4847.06060558,12.3636363624,4488.51515107,1516.60606045,42.0,42.0,?
2017-06-01 17:02:23.451886,4523.03030258,4.1212121208,4225.27272685,0.0,3918.75757537,98.9090908992,3920.81818143,16.4848484832,4287.09090866,4092.36363595,4456.57575713,2855.99999971,4209.8181814,2637.57575731,4358.18181775,1858.66666648,5002.12121162,2802.42424214,4209.30302988,3762.66666629,4419.99999956,8.2424242416,4223.21212079,8.2424242416,4837.7878783,12.3636363624,4473.06060561,1516.60606045,42.0,42.0,?
2017-06-01 17:02:23.457419,4533.33333288,4.1212121208,4226.30302988,0.0,3926.48484809,98.9090908992,3922.36363597,16.4848484832,4278.84848442,4092.36363595,4453.99999955,2855.99999971,4209.8181814,2637.57575731,4357.66666623,1858.66666648,5002.63636314,2802.42424214,4205.18181776,3762.66666629,4427.72727228,8.2424242416,4223.7272723,8.2424242416,4841.90909042,12.3636363624,4481.30302985,1516.60606045,42.0,42.0,?
2017-06-01 17:02:23.467211,4533.33333288,4.1212121208,4224.24242382,0.0,3923.90909052,98.9090908992,3920.81818143,16.4848484832,4282.45454503,4092.36363595,4454.51515107,2855.99999971,4202.60606019,2637.57575731,4351.99999956,1858.66666648,4996.96969647,2802.42424214,4207.75757534,3762.66666629,4424.12121168,8.2424242416,4220.63636321,8.2424242416,4842.42424194,12.3636363624,4484.39393895,1516.60606045,42.0,42.0,?
2017-06-01 17:02:23.474471,4522.51515106,4.1212121208,4225.27272685,0.0,3922.36363597,98.9090908992,3921.84848446,16.4848484832,4282.96969654,4092.36363595,4450.39393895,2855.99999971,4197.96969655,2637.57575731,4350.45454502,1858.66666648,4995.42424192,2802.42424214,4212.39393897,3762.66666629,4418.45454501,8.2424242416,4218.57575715,8.2424242416,4834.69696921,12.3636363624,4476.66666622,1516.60606045,42.0,42.0,?
2017-06-01 17:02:23.485217,4534.36363591,4.1212121208,4230.424242,0.0,3920.81818143,98.9090908992,3916.69696931,16.4848484832,4274.7272723,4092.36363595,4443.69696925,2855.99999971,4195.39393897,2637.57575731,4346.84848441,1858.66666648,4984.60606011,2802.42424214,4205.69696928,3762.66666629,4429.78787834,8.2424242416,4221.66666624,8.2424242416,4840.36363588,12.3636363624,4486.45454501,1516.60606045,42.0,42.0,?
2017-06-01 17:02:23.489630,4523.03030258,4.1212121208,4219.60606018,0.0,3924.93939355,98.9090908992,3918.75757537,16.4848484832,4278.33333291,4092.36363595,4449.36363592,2855.99999971,4195.39393897,2637.57575731,4347.87878744,1858.66666648,4985.63636314,2802.42424214,4204.66666625,3762.66666629,4421.03030259,8.2424242416,4220.63636321,8.2424242416,4835.21212073,12.3636363624,4473.06060561,1516.60606045,42.0,42.0,?
2017-06-01 17:02:23.497588,4536.42424197,4.1212121208,4227.84848443,0.0,3922.87878749,98.9090908992,3918.75757537,16.4848484832,4277.30302988,4092.36363595,4451.42424198,2855.99999971,4192.30302988,2637.57575731,4346.3333329,1858.66666648,4993.36363586,2802.42424214,4208.78787837,3762.66666629,4425.15151471,8.2424242416,4219.09090867,8.2424242416,4845.51515103,12.3636363624,4479.24242379,1516.60606045,42.0,42.0,?
2017-06-01 17:02:23.507372,4538.48484803,4.1212121208,4230.93939352,0.0,3920.81818143,98.9090908992,3917.21212082,16.4848484832,4276.27272685,4092.36363595,4446.78787834,2855.99999971,4194.87878746,2637.57575731,4345.81818138,1858.66666648,4994.90909041,2802.42424214,4213.93939352,3762.66666629,4429.27272683,8.2424242416,4220.1212117,8.2424242416,4846.54545406,12.3636363624,4484.39393895,1516.60606045,42.0,42.0,?
2017-06-01 17:02:23.514268,4521.48484803,4.1212121208,4221.66666624,0.0,3927.51515112,98.9090908992,3921.33333294,16.4848484832,4287.60606018,4092.36363595,4453.48484804,2855.99999971,4203.1212117,2637.57575731,4351.99999956,1858.66666648,4995.93939344,2802.42424214,4217.03030261,3762.66666629,4422.57575713,8.2424242416,4221.15151473,8.2424242416,4836.75757527,12.3636363624,4476.66666622,1516.60606045,42.0,42.0,?
2017-06-01 17:02:23.520534,4538.48484803,4.1212121208,4228.36363594,0.0,3932.15151476,98.9090908992,3917.72727234,16.4848484832,4287.60606018,4092.36363595,4455.5454541,2855.99999971,4200.03030261,2637.57575731,4351.48484805,1858.66666648,4993.87878738,2802.42424214,4210.84848443,3762.66666629,4428.75757531,8.2424242416,4222.69696927,8.2424242416,4847.06060558,12.3636363624,4493.1515147,1516.60606045,42.0,42.0,?
2017-06-01 17:02:23.529128,4531.78787833,4.1212121208,4225.27272685,0.0,3935.75757536,98.9090908992,3917.72727234,16.4848484832,4279.87878745,4092.36363595,4450.90909046,2855.99999971,4200.03030261,2637.57575731,4353.54545411,1858.66666648,4996.45454495,2802.42424214,4209.8181814,3762.66666629,4423.60606016,8.2424242416,4221.15151473,8.2424242416,4840.36363588,12.3636363624,4483.87878743,1516.60606045,42.0,42.0,?
2017-06-01 17:02:23.537656,4534.36363591,4.1212121208,4226.8181814,0.0,3927.51515112,98.9090908992,3918.75757537,16.4848484832,4271.12121169,4092.36363595,4447.30302986,2855.99999971,4202.60606019,2637.57575731,4353.03030259,1858.66666648,4992.84848435,2802.42424214,4207.24242382,3762.66666629,4429.78787834,8.2424242416,4223.7272723,8.2424242416,4840.87878739,12.3636363624,4482.33333289,1516.60606045,42.0,42.0,?
2017-06-01 17:02:23.544091,4537.454545,4.1212121208,4226.8181814,0.0,3918.24242385,98.9090908992,3917.21212082,16.4848484832,4268.54545412,4092.36363595,4445.75757531,2855.99999971,4197.45454503,2637.57575731,4347.87878744,1858.66666648,4982.54545405,2802.42424214,4201.57575716,3762.66666629,4432.36363592,8.2424242416,4224.24242382,8.2424242416,4846.03030255,12.3636363624,4487.48484804,1516.60606045,42.0,42.0,?
2017-06-01 17:02:23.551848,4523.54545409,4.1212121208,4221.66666624,0.0,3922.36363597,98.9090908992,3916.69696931,16.4848484832,4281.424242,4092.36363595,4450.39393895,2855.99999971,4194.36363594,2637.57575731,4350.96969653,1858.66666648,4983.57575708,2802.42424214,4201.06060564,3762.66666629,4423.09090865,8.2424242416,4220.63636321,8.2424242416,4839.84848436,12.3636363624,4478.21212076,1516.60606045,42.0,42.0,?
2017-06-01 17:02:23.561654,4538.48484803,4.1212121208,4230.424242,0.0,3920.81818143,98.9090908992,3910.51515112,16.4848484832,4281.424242,4092.36363595,4446.78787834,2855.99999971,4187.15151473,2637.57575731,4345.81818138,1858.66666648,4983.06060556,2802.42424214,4194.36363594,3762.66666629,4432.36363592,8.2424242416,4222.69696927,8.2424242416,4848.09090861,12.3636363624,4490.06060561,1516.60606045,42.0,42.0,?
2017-06-01 17:02:23.572360,4533.33333288,4.1212121208,4226.30302988,0.0,3921.33333294,98.9090908992,3908.96969658,16.4848484832,4275.75757533,4092.36363595,4442.15151471,2855.99999971,4184.57575716,2637.57575731,4343.24242381,1858.66666648,4986.15151465,2802.42424214,4197.45454503,3762.66666629,4426.18181774,8.2424242416,4223.21212079,8.2424242416,4842.93939346,12.3636363624,4483.87878743,1516.60606045,42.0,42.0,?
2017-06-01 17:02:23.577829,4537.454545,4.1212121208,4225.78787837,0.0,3922.36363597,98.9090908992,3902.7878784,16.4848484832,4276.27272685,4092.36363595,4445.2424238,2855.99999971,4190.75757534,2637.57575731,4346.84848441,1858.66666648,4991.81818132,2802.42424214,4207.24242382,3762.66666629,4426.18181774,8.2424242416,4220.63636321,8.2424242416,4844.99999952,12.3636363624,4486.45454501,1516.60606045,42.0,42.0,?
2017-06-01 17:02:23.584721,4543.12121167,4.1212121208,4229.90909049,0.0,3918.75757537,98.9090908992,3898.66666628,16.4848484832,4278.33333291,4092.36363595,4445.75757531,2855.99999971,4195.39393897,2637.57575731,4348.39393896,1858.66666648,4992.84848435,2802.42424214,4207.75757534,3762.66666629,4431.84848441,8.2424242416,4220.1212117,8.2424242416,4847.06060558,12.3636363624,4494.18181773,1516.60606045,42.0,42.0,?
2017-06-01 17:02:23.590916,4524.57575712,4.1212121208,4224.24242382,0.0,3917.72727234,98.9090908992,3905.87878749,16.4848484832,4278.33333291,4092.36363595,4442.66666622,2855.99999971,4194.36363594,2637.57575731,4349.9393935,1858.66666648,4992.33333283,2802.42424214,4207.24242382,3762.66666629,4423.09090865,8.2424242416,4219.60606018,8.2424242416,4835.21212073,12.3636363624,4480.78787834,1516.60606045,42.0,42.0,?
2017-06-01 17:02:23.598531,4542.60606015,4.1212121208,4232.48484806,0.0,3912.57575718,98.9090908992,3903.30302991,16.4848484832,4268.0303026,4092.36363595,4439.57575713,2855.99999971,4185.60606019,2637.57575731,4343.24242381,1858.66666648,4979.45454496,2802.42424214,4197.45454503,3762.66666629,4431.84848441,8.2424242416,4220.63636321,8.2424242416,4846.03030255,12.3636363624,4494.18181773,1516.60606045,42.0,42.0,?
2017-06-01 17:02:23.608316,4539.51515106,4.1212121208,4226.8181814,0.0,3913.60606021,98.9090908992,3902.7878784,16.4848484832,4264.93939351,4092.36363595,4444.72727228,2855.99999971,4187.66666625,2637.57575731,4340.15151472,1858.66666648,4975.84848435,2802.42424214,4194.87878746,3762.66666629,4428.75757531,8.2424242416,4220.63636321,8.2424242416,4843.96969649,12.3636363624,4489.03030258,1516.60606045,42.0,42.0,?
2017-06-01 17:02:23.614557,4534.87878743,4.1212121208,4224.24242382,0.0,3915.66666628,98.9090908992,3905.36363597,16.4848484832,4270.60606018,4092.36363595,4450.39393895,2855.99999971,4193.84848443,2637.57575731,4342.21212078,1858.66666648,4982.54545405,2802.42424214,4202.09090867,3762.66666629,4425.15151471,8.2424242416,4222.18181776,8.2424242416,4843.45454497,12.3636363624,4484.39393895,1516.60606045,42.0,42.0,?
2017-06-01 17:02:23.624634,4546.21212076,4.1212121208,4231.45454503,0.0,3909.48484809,98.9090908992,3902.27272688,16.4848484832,4273.69696927,4092.36363595,4449.36363592,2855.99999971,4192.30302988,2637.57575731,4343.75757532,1858.66666648,4979.45454496,2802.42424214,4203.1212117,3762.66666629,4432.36363592,8.2424242416,4223.7272723,8.2424242416,4850.66666618,12.3636363624,4497.78787834,1516.60606045,42.0,42.0,?
2017-06-01 17:02:23.629644,4531.78787833,4.1212121208,4226.30302988,0.0,3911.54545415,98.9090908992,3905.36363597,16.4848484832,4278.84848442,4092.36363595,4452.45454501,2855.99999971,4201.06060564,2637.57575731,4350.96969653,1858.66666648,4987.18181768,2802.42424214,4206.21212079,3762.66666629,4425.66666622,8.2424242416,4221.15151473,8.2424242416,4838.30302982,12.3636363624,4486.45454501,1516.60606045,42.0,42.0,?
2017-06-01 17:02:23.637669,4546.21212076,4.1212121208,4233.51515109,0.0,3916.18181779,98.9090908992,3905.36363597,16.4848484832,4277.81818139,4092.36363595,4456.57575713,2855.99999971,4206.21212079,2637.57575731,4352.51515108,1858.66666648,4996.96969647,2802.42424214,4205.69696928,3762.66666629,4431.84848441,8.2424242416,4224.24242382,8.2424242416,4848.09090861,12.3636363624,4495.21212076,1516.60606045,42.0,42.0,?
2017-06-01 17:02:23.648391,4546.21212076,4.1212121208,4231.45454503,0.0,3919.27272688,98.9090908992,3902.7878784,16.4848484832,4275.24242381,4092.36363595,4457.09090865,2855.99999971,4201.57575716,2637.57575731,4351.48484805,1858.66666648,4997.48484799,2802.42424214,4205.69696928,3762.66666629,4427.21212077,8.2424242416,4223.21212079,8.2424242416,4851.1818177,12.3636363624,4495.21212076,1516.60606045,42.0,42.0,?
2017-06-01 17:02:23.653629,4537.454545,4.1212121208,4226.30302988,0.0,3915.66666628,98.9090908992,3901.24242385,16.4848484832,4268.0303026,4092.36363595,4448.33333289,2855.99999971,4196.424242,2637.57575731,4349.42424199,1858.66666648,4989.75757526,2802.42424214,4202.09090867,3762.66666629,4424.12121168,8.2424242416,4219.60606018,8.2424242416,4844.484848,12.3636363624,4488.51515107,1516.60606045,42.0,42.0,?
2017-06-01 17:02:23.661719,4548.27272682,4.1212121208,4233.51515109,0.0,3911.03030264,98.9090908992,3898.15151476,16.4848484832,4264.93939351,4092.36363595,4441.63636319,2855.99999971,4193.84848443,2637.57575731,4343.75757532,1858.66666648,4983.57575708,2802.42424214,4194.87878746,3762.66666629,4435.45454501,8.2424242416,4221.66666624,8.2424242416,4849.63636315,12.3636363624,4498.81818137,1516.60606045,42.0,42.0,?
2017-06-01 17:02:23.671806,4534.87878743,4.1212121208,4227.84848443,0.0,3916.69696931,98.9090908992,3903.81818143,16.4848484832,4278.84848442,4092.36363595,4448.8484844,2855.99999971,4194.87878746,2637.57575731,4346.3333329,1858.66666648,4989.24242374,2802.42424214,4197.45454503,3762.66666629,4425.66666622,8.2424242416,4219.09090867,8.2424242416,4840.87878739,12.3636363624,4486.45454501,1516.60606045,42.0,42.0,?
2017-06-01 17:02:23.678948,4546.72727227,4.1212121208,4230.93939352,0.0,3916.69696931,98.9090908992,3906.90909052,16.4848484832,4278.33333291,4092.36363595,4452.45454501,2855.99999971,4186.63636322,2637.57575731,4343.75757532,1858.66666648,4985.63636314,2802.42424214,4195.39393897,3762.66666629,4429.27272683,8.2424242416,4218.57575715,8.2424242416,4847.06060558,12.3636363624,4493.66666622,1516.60606045,42.0,42.0,?
2017-06-01 17:02:23.685217,4546.72727227,4.1212121208,4231.96969655,0.0,3913.0909087,98.9090908992,3903.30302991,16.4848484832,4262.36363594,4092.36363595,4442.66666622,2855.99999971,4178.90909049,2637.57575731,4334.99999957,1858.66666648,4974.30302981,2802.42424214,4191.78787837,3762.66666629,4429.78787834,8.2424242416,4220.1212117,8.2424242416,4847.06060558,12.3636363624,4494.18181773,1516.60606045,42.0,42.0,?
2017-06-01 17:02:23.692706,4532.81818136,4.1212121208,4228.87878746,0.0,3911.54545415,98.9090908992,3896.60606022,16.4848484832,4254.63636321,4092.36363595,4436.48484804,2855.99999971,4179.42424201,2637.57575731,4331.90909048,1858.66666648,4968.63636314,2802.42424214,4192.8181814,3762.66666629,4423.60606016,8.2424242416,4221.66666624,8.2424242416,4841.39393891,12.3636363624,4483.87878743,1516.60606045,42.0,42.0,?
2017-06-01 17:02:23.703491,4546.72727227,4.1212121208,4234.54545412,0.0,3912.57575718,98.9090908992,3896.0909087,16.4848484832,4260.30302988,4092.36363595,4442.66666622,2855.99999971,4184.57575716,2637.57575731,4334.99999957,1858.66666648,4970.6969692,2802.42424214,4194.36363594,3762.66666629,4431.33333289,8.2424242416,4224.24242382,8.2424242416,4850.66666618,12.3636363624,4500.36363591,1516.60606045,42.0,42.0,?
2017-06-01 17:02:23.708870,4535.90909046,4.1212121208,4226.30302988,0.0,3925.45454506,98.9090908992,3908.45454506,16.4848484832,4279.36363594,4092.36363595,4455.5454541,2855.99999971,4204.66666625,2637.57575731,4350.45454502,1858.66666648,4990.27272677,2802.42424214,4203.63636322,3762.66666629,4425.15151471,8.2424242416,4222.69696927,8.2424242416,4841.90909042,12.3636363624,4493.66666622,1516.60606045,42.0,42.0,?
2017-06-01 17:02:23.719324,4542.09090864,4.1212121208,4229.90909049,0.0,3924.42424203,98.9090908992,3900.72727234,16.4848484832,4278.33333291,4092.36363595,4453.99999955,2855.99999971,4214.96969655,2637.57575731,4356.12121169,1858.66666648,4997.48484799,2802.42424214,4204.66666625,3762.66666629,4428.75757531,8.2424242416,4224.75757534,8.2424242416,4847.06060558,12.3636363624,4494.18181773,1516.60606045,42.0,42.0,?
2017-06-01 17:02:23.724066,4545.69696924,4.1212121208,4231.45454503,0.0,3913.0909087,98.9090908992,3888.36363597,16.4848484832,4267.51515109,4092.36363595,4447.30302986,2855.99999971,4208.78787837,2637.57575731,4349.9393935,1858.66666648,4990.78787829,2802.42424214,4201.06060564,3762.66666629,4428.75757531,8.2424242416,4224.75757534,8.2424242416,4849.12121164,12.3636363624,4494.18181773,1516.60606045,42.0,42.0,?
2017-06-01 17:02:23.733819,4530.7575753,4.1212121208,4225.78787837,0.0,3913.0909087,98.9090908992,3902.27272688,16.4848484832,4273.69696927,4092.36363595,4452.96969652,2855.99999971,4211.87878746,2637.57575731,4352.51515108,1858.66666648,4994.90909041,2802.42424214,4205.18181776,3762.66666629,4422.06060562,8.2424242416,4221.15151473,8.2424242416,4836.75757527,12.3636363624,4484.39393895,1516.60606045,42.0,42.0,?
2017-06-01 17:02:23.742543,4546.21212076,12.3636363624,4234.54545412,0.0,3906.90909052,98.9090908992,3908.96969658,16.4848484832,4269.57575715,4092.36363595,4450.39393895,2855.99999971,4209.30302988,2637.57575731,4349.9393935,1858.66666648,4990.78787829,2802.42424214,4197.96969655,3762.66666629,4431.84848441,8.2424242416,4221.15151473,8.2424242416,4848.09090861,12.3636363624,4498.30302985,1516.60606045,42.0,42.0,?
2017-06-01 17:02:23.747746,4540.03030258,12.3636363624,4227.84848443,0.0,3908.45454506,98.9090908992,3908.45454506,16.4848484832,4262.36363594,4092.36363595,4444.72727228,2855.99999971,4203.63636322,2637.57575731,4350.96969653,1858.66666648,4985.12121162,2802.42424214,4195.39393897,3762.66666629,4422.06060562,8.2424242416,4219.60606018,8.2424242416,4844.484848,12.3636363624,4487.99999955,1516.60606045,42.0,42.0,?
2017-06-01 17:02:23.757515,4544.1515147,12.3636363624,4229.39393897,0.0,3920.30302991,98.9090908992,3915.15151476,16.4848484832,4276.27272685,4092.36363595,4456.06060561,2855.99999971,4207.24242382,2637.57575731,4359.72727229,1858.66666648,4991.81818132,2802.42424214,4206.72727231,3762.66666629,4423.60606016,8.2424242416,4221.66666624,8.2424242416,4845.51515103,12.3636363624,4491.60606016,1458.90909076,42.0,42.0,?
2017-06-01 17:02:23.765480,4547.7575753,12.3636363624,4235.06060564,0.0,3928.54545415,111.272727262,3925.96969658,16.4848484832,4299.45454502,4092.36363595,4473.06060561,2855.99999971,4216.51515109,2637.57575731,4366.42424199,1858.66666648,5002.63636314,2802.42424214,4219.60606018,3762.66666629,4430.30302986,8.2424242416,4223.21212079,8.2424242416,4846.54545406,12.3636363624,4502.93939349,1458.90909076,42.0,42.0,?
2017-06-01 17:02:23.772616,4530.24242379,12.3636363624,4226.30302988,0.0,3934.21212082,111.272727262,3933.6969693,24.7272727248,4306.66666624,4092.36363595,4478.72727228,2855.99999971,4225.27272685,2637.57575731,4372.60606017,1858.66666648,5010.36363586,2802.42424214,4223.7272723,3762.66666629,4423.09090865,8.2424242416,4220.1212117,8.2424242416,4834.69696921,12.3636363624,4488.51515107,1458.90909076,42.0,42.0,?
2017-06-01 17:02:23.779090,4548.78787833,12.3636363624,4231.45454503,0.0,3928.03030264,111.272727262,3928.03030264,24.7272727248,4295.84848442,4100.6060602,4473.06060561,2855.99999971,4221.15151473,2637.57575731,4368.99999956,1858.66666648,5005.21212071,2802.42424214,4210.33333291,3762.66666629,4431.33333289,8.2424242416,4222.18181776,8.2424242416,4848.09090861,12.3636363624,4498.81818137,1458.90909076,42.0,42.0,?
2017-06-01 17:02:23.786778,4543.12121167,12.3636363624,4229.90909049,0.0,3924.93939355,111.272727262,3921.84848446,24.7272727248,4295.84848442,4100.6060602,4472.03030258,2855.99999971,4216.51515109,2637.57575731,4367.45454502,1858.66666648,5004.6969692,2802.42424214,4206.72727231,3762.66666629,4425.15151471,8.2424242416,4222.18181776,8.2424242416,4847.57575709,12.3636363624,4492.63636319,1458.90909076,42.0,42.0,?
2017-06-01 17:02:23.796593,4535.90909046,12.3636363624,4227.84848443,0.0,3922.87878749,111.272727262,3917.72727234,24.7272727248,4292.75757533,4100.6060602,4468.93939349,2855.99999971,4214.45454503,2649.93939367,4366.42424199,1858.66666648,5005.72727223,2802.42424214,4212.90909049,3762.66666629,4424.12121168,8.2424242416,4222.18181776,8.2424242416,4845.51515103,12.3636363624,4489.5454541,1458.90909076,42.0,42.0,?
2017-06-01 17:02:23.803237,4543.63636318,12.3636363624,4230.424242,0.0,3915.15151476,111.272727262,3912.06060567,24.7272727248,4277.81818139,4100.6060602,4461.72727228,2855.99999971,4209.8181814,2649.93939367,4356.6363632,1850.42424224,4999.03030253,2802.42424214,4209.8181814,3762.66666629,4431.33333289,8.2424242416,4224.75757534,8.2424242416,4847.57575709,12.3636363624,4498.30302985,1458.90909076,42.0,42.0,?
2017-06-01 17:02:23.809773,4533.33333288,12.3636363624,4225.27272685,0.0,3918.75757537,111.272727262,3916.18181779,24.7272727248,4282.96969654,4100.6060602,4467.39393895,2855.99999971,4214.45454503,2649.93939367,4357.15151472,1850.42424224,5003.15151465,2802.42424214,4208.78787837,3762.66666629,4422.57575713,8.2424242416,4222.69696927,8.2424242416,4835.21212073,12.3636363624,4483.36363592,1458.90909076,42.0,42.0,?
2017-06-01 17:02:23.818436,4548.27272682,12.3636363624,4230.93939352,0.0,3919.7878784,111.272727262,3914.12121173,24.7272727248,4288.12121169,4100.6060602,4472.03030258,2855.99999971,4219.60606018,2649.93939367,4361.27272684,1850.42424224,5004.6969692,2802.42424214,4209.8181814,3762.66666629,4429.78787834,8.2424242416,4222.69696927,8.2424242416,4844.99999952,12.3636363624,4494.18181773,1458.90909076,42.0,42.0,?
2017-06-01 17:02:23.826401,4540.03030258,12.3636363624,4225.78787837,0.0,3918.75757537,111.272727262,3913.0909087,24.7272727248,4282.45454503,4100.6060602,4468.42424198,2855.99999971,4220.63636321,2649.93939367,4362.30302987,1850.42424224,5001.60606011,2802.42424214,4214.96969655,3762.66666629,4427.72727228,8.2424242416,4221.66666624,8.2424242416,4846.03030255,12.3636363624,4495.72727228,1458.90909076,42.0,42.0,?
2017-06-01 17:02:23.836208,4535.90909046,12.3636363624,4225.78787837,0.0,3921.84848446,111.272727262,3918.75757537,24.7272727248,4286.57575715,4100.6060602,4468.93939349,2855.99999971,4221.66666624,2649.93939367,4363.84848441,1850.42424224,4999.54545405,2802.42424214,4220.63636321,3762.66666629,4424.12121168,8.2424242416,4222.18181776,12.3636363624,4842.93939346,12.3636363624,4492.63636319,1458.90909076,42.0,42.0,?
2017-06-01 17:02:23.841738,4551.36363591,12.3636363624,4232.99999958,0.0,3919.7878784,111.272727262,3914.12121173,24.7272727248,4290.18181775,4100.6060602,4466.36363592,2855.99999971,4219.09090867,2649.93939367,4363.3333329,1850.42424224,4997.9999995,2802.42424214,4216.51515109,3762.66666629,4429.78787834,8.2424242416,4223.7272723,12.3636363624,4848.09090861,8.2424242416,4501.39393894,1458.90909076,42.0,42.0,?
2017-06-01 17:02:23.849529,4533.8484844,12.3636363624,4225.27272685,0.0,3917.21212082,111.272727262,3909.99999961,24.7272727248,4282.96969654,4100.6060602,4463.27272683,2855.99999971,4218.06060564,2649.93939367,4362.81818138,1850.42424224,5003.15151465,2802.42424214,4214.45454503,3758.54545417,4422.06060562,8.2424242416,4219.09090867,12.3636363624,4837.7878783,8.2424242416,4489.03030258,1458.90909076,42.0,42.0,?
2017-06-01 17:02:23.860825,4544.66666621,12.3636363624,4230.93939352,0.0,3913.60606021,111.272727262,3911.54545415,24.7272727248,4278.33333291,4100.6060602,4462.2424238,2855.99999971,4218.06060564,2649.93939367,4359.21212078,1850.42424224,5001.09090859,2802.42424214,4211.36363594,3758.54545417,4428.75757531,8.2424242416,4220.1212117,12.3636363624,4847.57575709,8.2424242416,4497.27272682,1458.90909076,42.0,42.0,?
2017-06-01 17:02:23.864786,4547.24242379,12.3636363624,4231.96969655,0.0,3911.03030264,111.272727262,3909.99999961,24.7272727248,4277.81818139,4100.6060602,4456.57575713,2855.99999971,4219.60606018,2649.93939367,4361.78787835,1850.42424224,4997.48484799,2802.42424214,4208.27272685,3758.54545417,4425.15151471,8.2424242416,4222.69696927,12.3636363624,4847.06060558,8.2424242416,4491.60606016,1458.90909076,42.0,42.0,?
2017-06-01 17:02:23.872804,4537.96969652,12.3636363624,4228.36363594,0.0,3903.81818143,111.272727262,3903.81818143,24.7272727248,4269.06060563,4100.6060602,4449.36363592,2855.99999971,4219.09090867,2649.93939367,4362.30302987,1850.42424224,4996.45454495,2802.42424214,4205.18181776,3758.54545417,4422.06060562,8.2424242416,4221.15151473,12.3636363624,4837.27272679,8.2424242416,4482.33333289,1458.90909076,42.0,42.0,?
2017-06-01 17:02:23.882757,4548.27272682,12.3636363624,4234.54545412,0.0,3907.42424203,111.272727262,3914.63636324,24.7272727248,4276.27272685,4100.6060602,4456.57575713,2855.99999971,4220.1212117,2649.93939367,4362.30302987,1850.42424224,5003.66666617,2802.42424214,4209.30302988,3758.54545417,4433.90909047,8.2424242416,4220.1212117,12.3636363624,4844.99999952,8.2424242416,4500.36363591,1458.90909076,42.0,42.0,?
2017-06-01 17:02:23.890710,4534.36363591,12.3636363624,4227.33333291,0.0,3929.57575718,111.272727262,3937.81818142,24.7272727248,4302.0303026,4100.6060602,4473.57575713,2855.99999971,4229.39393897,2649.93939367,4373.6363632,1850.42424224,5019.63636313,2802.42424214,4226.30302988,3758.54545417,4424.12121168,8.2424242416,4220.63636321,12.3636363624,4838.81818133,8.2424242416,4491.09090864,1458.90909076,42.0,42.0,?
2017-06-01 17:02:23.897191,4545.18181773,12.3636363624,4230.93939352,0.0,3926.48484809,111.272727262,3927.51515112,24.7272727248,4290.69696927,4100.6060602,4466.36363592,2855.99999971,4224.75757534,2649.93939367,4371.06060562,1850.42424224,5007.78787829,2802.42424214,4221.66666624,3758.54545417,4427.21212077,8.2424242416,4222.18181776,12.3636363624,4842.93939346,8.2424242416,4492.12121167,1458.90909076,42.0,42.0,?
2017-06-01 17:02:23.904780,4548.78787833,12.3636363624,4232.48484806,0.0,3913.0909087,111.272727262,3913.0909087,24.7272727248,4270.60606018,4100.6060602,4451.42424198,2855.99999971,4219.09090867,2649.93939367,4365.39393896,1850.42424224,4999.03030253,2802.42424214,4213.93939352,3758.54545417,4429.27272683,8.2424242416,4220.63636321,12.3636363624,4844.484848,8.2424242416,4492.63636319,1458.90909076,42.0,42.0,?
2017-06-01 17:02:23.912620,4532.81818136,12.3636363624,4227.84848443,0.0,3921.84848446,111.272727262,3923.90909052,24.7272727248,4286.06060563,4100.6060602,4462.2424238,2855.99999971,4230.424242,2649.93939367,4380.3333329,1850.42424224,5021.18181768,2802.42424214,4228.36363594,3758.54545417,4423.09090865,8.2424242416,4219.60606018,12.3636363624,4838.81818133,8.2424242416,4485.93939349,1458.90909076,42.0,42.0,?
2017-06-01 17:02:23.919971,4542.60606015,12.3636363624,4232.99999958,0.0,3920.81818143,111.272727262,3924.42424203,24.7272727248,4290.69696927,4100.6060602,4470.48484804,2855.99999971,4232.99999958,2649.93939367,4380.84848441,1850.42424224,5021.18181768,2802.42424214,4224.24242382,3758.54545417,4430.81818138,8.2424242416,4222.18181776,12.3636363624,4846.03030255,8.2424242416,4497.27272682,1458.90909076,42.0,42.0,?
2017-06-01 17:02:23.929977,4535.90909046,12.3636363624,4226.8181814,0.0,3913.60606021,111.272727262,3919.27272688,24.7272727248,4285.54545412,4100.6060602,4466.87878743,2855.99999971,4226.30302988,2649.93939367,4369.51515108,1850.42424224,5005.72727223,2802.42424214,4207.75757534,3758.54545417,4423.60606016,8.2424242416,4222.69696927,12.3636363624,4839.33333285,8.2424242416,4482.33333289,1458.90909076,42.0,42.0,?
2017-06-01 17:02:23.934824,4545.18181773,12.3636363624,4232.48484806,0.0,3918.24242385,111.272727262,3921.84848446,24.7272727248,4292.24242381,4100.6060602,4469.45454501,2855.99999971,4222.69696927,2649.93939367,4366.9393935,1850.42424224,5006.75757526,2802.42424214,4211.36363594,3758.54545417,4423.60606016,8.2424242416,4222.18181776,12.3636363624,4847.57575709,8.2424242416,4486.45454501,1458.90909076,42.0,42.0,?
2017-06-01 17:02:23.942791,4548.78787833,12.3636363624,4233.51515109,0.0,3925.96969658,111.272727262,3926.48484809,24.7272727248,4297.39393896,4100.6060602,4475.63636319,2855.99999971,4228.36363594,2649.93939367,4374.15151471,1850.42424224,5015.51515101,2802.42424214,4226.30302988,3758.54545417,4426.69696925,8.2424242416,4221.15151473,12.3636363624,4848.60606012,8.2424242416,4497.27272682,1458.90909076,42.0,42.0,?
2017-06-01 17:02:23.952436,4531.78787833,12.3636363624,4224.24242382,0.0,3924.93939355,111.272727262,3927.51515112,24.7272727248,4291.7272723,4100.6060602,4475.63636319,2855.99999971,4233.51515109,2649.93939367,4380.84848441,1850.42424224,5017.06060556,2802.42424214,4230.424242,3758.54545417,4424.63636319,8.2424242416,4219.60606018,12.3636363624,4834.1818177,8.2424242416,4483.36363592,1458.90909076,42.0,42.0,?
2017-06-01 17:02:23.958942,4547.24242379,12.3636363624,4232.99999958,0.0,3913.0909087,111.272727262,3917.72727234,24.7272727248,4280.90909048,4100.6060602,4466.87878743,2855.99999971,4220.1212117,2649.93939367,4371.06060562,1850.42424224,5007.78787829,2802.42424214,4220.63636321,3758.54545417,4433.39393895,8.2424242416,4221.66666624,12.3636363624,4844.484848,8.2424242416,4491.09090864,1458.90909076,42.0,42.0,?
2017-06-01 17:02:23.966833,4542.60606015,12.3636363624,4229.90909049,0.0,3911.03030264,111.272727262,3908.45454506,24.7272727248,4280.39393897,4100.6060602,4459.15151471,2855.99999971,4213.93939352,2649.93939367,4364.36363593,1850.42424224,5005.21212071,2802.42424214,4213.93939352,3758.54545417,4424.12121168,8.2424242416,4220.1212117,12.3636363624,4842.42424194,8.2424242416,4484.90909046,1458.90909076,42.0,42.0,?
2017-06-01 17:02:23.976606,4544.1515147,12.3636363624,4228.36363594,0.0,3909.48484809,111.272727262,3903.30302991,24.7272727248,4274.7272723,4100.6060602,4452.45454501,2855.99999971,4219.09090867,2649.93939367,4360.75757532,1850.42424224,5000.06060556,2802.42424214,4201.57575716,3758.54545417,4425.15151471,8.2424242416,4219.60606018,12.3636363624,4841.90909042,8.2424242416,4485.42424198,1458.90909076,42.0,42.0,?
2017-06-01 17:02:23.981755,4548.27272682,12.3636363624,4231.45454503,0.0,3906.393939,111.272727262,3902.7878784,24.7272727248,4268.0303026,4100.6060602,4450.39393895,2855.99999971,4215.99999958,2649.93939367,4354.57575714,1850.42424224,4982.03030253,2802.42424214,4191.27272685,3758.54545417,4430.30302986,8.2424242416,4221.66666624,12.3636363624,4845.51515103,8.2424242416,4491.60606016,1458.90909076,42.0,42.0,?
2017-06-01 17:02:23.989755,4531.27272682,12.3636363624,4224.75757534,0.0,3911.54545415,111.272727262,3904.84848446,24.7272727248,4275.75757533,4100.6060602,4453.48484804,2855.99999971,4211.36363594,2649.93939367,4356.6363632,1850.42424224,4980.48484799,2802.42424214,4194.87878746,3758.54545417,4417.9393935,8.2424242416,4220.1212117,12.3636363624,4836.75757527,8.2424242416,4477.69696925,1458.90909076,42.0,42.0,?
2017-06-01 17:02:23.998911,4548.78787833,12.3636363624,4231.96969655,0.0,3912.06060567,111.272727262,3903.30302991,24.7272727248,4279.36363594,4100.6060602,4452.96969652,2855.99999971,4212.90909049,2649.93939367,4358.69696926,1850.42424224,4990.27272677,2802.42424214,4193.33333291,3758.54545417,4426.69696925,8.2424242416,4221.66666624,12.3636363624,4845.51515103,8.2424242416,4487.99999955,1458.90909076,42.0,42.0,?
2017-06-01 17:02:24.005821,4543.12121167,12.3636363624,4228.36363594,0.0,3919.7878784,111.272727262,3916.18181779,24.7272727248,4285.54545412,4100.6060602,4460.18181774,2855.99999971,4225.27272685,2649.93939367,4367.45454502,1850.42424224,5003.15151465,2802.42424214,4201.57575716,3758.54545417,4427.21212077,8.2424242416,4221.15151473,12.3636363624,4843.45454497,8.2424242416,4485.42424198,1458.90909076,42.0,42.0,?
2017-06-01 17:02:24.014617,4535.90909046,12.3636363624,4224.75757534,0.0,3926.48484809,111.272727262,3924.42424203,24.7272727248,4288.63636321,4100.6060602,4467.90909046,2855.99999971,4232.48484806,2649.93939367,4375.18181774,1850.42424224,5009.84848435,2802.42424214,4218.06060564,3758.54545417,4425.66666622,8.2424242416,4221.66666624,12.3636363624,4841.39393891,8.2424242416,4486.96969652,1458.90909076,42.0,42.0,?
2017-06-01 17:02:24.025218,4545.69696924,12.3636363624,4228.87878746,0.0,3923.393939,111.272727262,3919.27272688,24.7272727248,4283.99999957,4100.6060602,4464.30302986,2855.99999971,4229.90909049,2649.93939367,4373.6363632,1850.42424224,5009.84848435,2802.42424214,4222.69696927,3758.54545417,4429.78787834,8.2424242416,4224.24242382,12.3636363624,4846.03030255,8.2424242416,4500.87878743,1458.90909076,42.0,42.0,?
2017-06-01 17:02:24.030408,4530.7575753,12.3636363624,4223.7272723,0.0,3929.57575718,111.272727262,3925.96969658,24.7272727248,4287.09090866,4100.6060602,4466.36363592,2855.99999971,4231.96969655,2649.93939367,4375.69696926,1850.42424224,5015.51515101,2802.42424214,4225.78787837,3758.54545417,4422.06060562,8.2424242416,4222.18181776,12.3636363624,4837.27272679,8.2424242416,4486.96969652,1458.90909076,42.0,42.0,?
2017-06-01 17:02:24.038399,4544.66666621,12.3636363624,4230.424242,0.0,3928.03030264,111.272727262,3921.33333294,24.7272727248,4283.48484806,4100.6060602,4464.81818137,2855.99999971,4221.15151473,2649.93939367,4367.96969653,1850.42424224,5007.27272677,2802.42424214,4215.99999958,3758.54545417,4430.30302986,8.2424242416,4222.69696927,12.3636363624,4847.57575709,8.2424242416,4492.12121167,1458.90909076,42.0,42.0,?
2017-06-01 17:02:24.046958,4544.66666621,12.3636363624,4229.39393897,0.0,3922.36363597,111.272727262,3910.51515112,24.7272727248,4283.48484806,4100.6060602,4457.09090865,2855.99999971,4210.33333291,2649.93939367,4356.6363632,1850.42424224,4991.3030298,2802.42424214,4206.72727231,3758.54545417,4427.72727228,8.2424242416,4221.66666624,12.3636363624,4844.99999952,8.2424242416,4488.51515107,1458.90909076,42.0,42.0,?
2017-06-01 17:02:24.068644,4536.42424197,12.3636363624,4227.33333291,0.0,3922.36363597,111.272727262,3913.60606021,24.7272727248,4292.24242381,4100.6060602,4462.2424238,2855.99999971,4214.45454503,2649.93939367,4359.72727229,1850.42424224,4986.15151465,2802.42424214,4215.48484806,3758.54545417,4423.60606016,8.2424242416,4220.63636321,12.3636363624,4838.30302982,8.2424242416,4485.42424198,1458.90909076,42.0,42.0,?
2017-06-01 17:02:24.076274,4546.72727227,12.3636363624,4232.99999958,0.0,3918.75757537,111.272727262,3917.21212082,24.7272727248,4289.66666624,4100.6060602,4466.36363592,2855.99999971,4214.96969655,2649.93939367,4361.27272684,1850.42424224,4991.81818132,2802.42424214,4217.03030261,3758.54545417,4432.36363592,8.2424242416,4221.66666624,12.3636363624,4845.51515103,8.2424242416,4495.72727228,1458.90909076,42.0,42.0,?
2017-06-01 17:02:24.081167,4533.8484844,12.3636363624,4225.78787837,0.0,3919.7878784,111.272727262,3918.75757537,24.7272727248,4285.0303026,4100.6060602,4459.66666622,2855.99999971,4213.93939352,2649.93939367,4359.21212078,1850.42424224,5003.15151465,2802.42424214,4211.87878746,3758.54545417,4422.57575713,8.2424242416,4221.66666624,12.3636363624,4836.24242376,8.2424242416,4481.81818137,1458.90909076,42.0,42.0,?
2017-06-01 17:02:24.087592,4543.63636318,12.3636363624,4231.45454503,0.0,3922.87878749,111.272727262,3912.57575718,24.7272727248,4278.33333291,4100.6060602,4451.93939349,2855.99999971,4214.96969655,2649.93939367,4358.69696926,1850.42424224,5000.57575708,2802.42424214,4209.30302988,3758.54545417,4427.21212077,8.2424242416,4225.27272685,12.3636363624,4842.42424194,8.2424242416,4493.1515147,1458.90909076,42.0,42.0,?
2017-06-01 17:02:24.090876,4542.09090864,12.3636363624,4228.87878746,0.0,3921.33333294,111.272727262,3906.393939,24.7272727248,4271.63636321,4100.6060602,4446.27272683,2855.99999971,4211.87878746,2649.93939367,4358.69696926,1850.42424224,4994.39393889,2802.42424214,4212.39393897,3758.54545417,4427.21212077,8.2424242416,4222.18181776,12.3636363624,4844.99999952,8.2424242416,4493.1515147,1458.90909076,42.0,42.0,?
2017-06-01 17:02:24.094157,4531.27272682,12.3636363624,4222.69696927,0.0,3915.66666628,111.272727262,3904.84848446,24.7272727248,4271.63636321,4100.6060602,4443.69696925,2855.99999971,4206.72727231,2649.93939367,4358.18181775,1850.42424224,4997.48484799,2802.42424214,4217.03030261,3758.54545417,4420.51515107,8.2424242416,4219.09090867,12.3636363624,4841.90909042,8.2424242416,4480.27272682,1458.90909076,42.0,42.0,?
2017-06-01 17:02:24.100678,4544.1515147,12.3636363624,4230.93939352,0.0,3920.30302991,111.272727262,3905.36363597,24.7272727248,4273.69696927,4100.6060602,4447.81818137,2855.99999971,4209.30302988,2649.93939367,4361.27272684,1850.42424224,5002.63636314,2802.42424214,4223.21212079,3758.54545417,4425.66666622,8.2424242416,4224.24242382,12.3636363624,4850.15151467,8.2424242416,4495.72727228,1458.90909076,42.0,42.0,?
2017-06-01 17:02:24.108014,4532.81818136,12.3636363624,4225.27272685,0.0,3940.393939,111.272727262,3915.66666628,24.7272727248,4281.424242,4100.6060602,4458.12121168,2855.99999971,4220.1212117,2649.93939367,4372.60606017,1850.42424224,5012.93939344,2802.42424214,4234.54545412,3758.54545417,4419.48484804,8.2424242416,4223.7272723,12.3636363624,4839.33333285,8.2424242416,4487.99999955,1458.90909076,42.0,42.0,?
2017-06-01 17:02:24.116359,4544.1515147,12.3636363624,4226.8181814,0.0,3937.30302991,111.272727262,3921.33333294,24.7272727248,4279.87878745,4100.6060602,4458.12121168,2855.99999971,4215.48484806,2649.93939367,4365.90909047,1850.42424224,5006.24242374,2802.42424214,4227.84848443,3758.54545417,4429.27272683,8.2424242416,4221.15151473,12.3636363624,4843.45454497,8.2424242416,4489.03030258,1458.90909076,42.0,42.0,?
2017-06-01 17:02:24.123333,4545.69696924,12.3636363624,4227.33333291,0.0,3918.75757537,111.272727262,3911.54545415,24.7272727248,4274.7272723,4100.6060602,4453.48484804,2855.99999971,4202.60606019,2649.93939367,4354.06060563,1850.42424224,4989.75757526,2802.42424214,4219.09090867,3758.54545417,4430.81818138,8.2424242416,4221.66666624,12.3636363624,4847.06060558,8.2424242416,4490.06060561,1458.90909076,42.0,42.0,?
2017-06-01 17:02:24.132799,4529.21212076,12.3636363624,4224.75757534,0.0,3917.72727234,111.272727262,3900.72727234,24.7272727248,4278.33333291,4100.6060602,4457.60606016,2855.99999971,4204.15151473,2649.93939367,4357.15151472,1850.42424224,4990.78787829,2802.42424214,4222.69696927,3758.54545417,4421.03030259,8.2424242416,4222.18181776,12.3636363624,4837.7878783,8.2424242416,4480.27272682,1458.90909076,42.0,42.0,?
2017-06-01 17:02:24.138908,4545.18181773,12.3636363624,4234.03030261,0.0,3925.45454506,111.272727262,3907.42424203,24.7272727248,4279.36363594,4100.6060602,4459.66666622,2855.99999971,4205.69696928,2649.93939367,4360.75757532,1850.42424224,4995.93939344,2802.42424214,4221.15151473,3758.54545417,4430.81818138,8.2424242416,4223.21212079,12.3636363624,4847.57575709,8.2424242416,4495.21212076,1458.90909076,42.0,42.0,?
2017-06-01 17:02:24.146842,4536.42424197,12.3636363624,4228.36363594,0.0,3935.24242385,111.272727262,3930.0909087,24.7272727248,4286.57575715,4100.6060602,4464.81818137,2855.99999971,4212.39393897,2649.93939367,4367.45454502,1850.42424224,5007.27272677,2802.42424214,4222.69696927,3758.54545417,4422.57575713,8.2424242416,4220.63636321,12.3636363624,4842.93939346,8.2424242416,4489.03030258,1458.90909076,42.0,42.0,?
2017-06-01 17:02:24.154374,4542.60606015,12.3636363624,4229.90909049,0.0,3930.60606021,111.272727262,3932.66666627,24.7272727248,4294.30302987,4100.6060602,4469.96969652,2855.99999971,4222.18181776,2649.93939367,4369.51515108,1850.42424224,5013.96969647,2802.42424214,4215.99999958,3758.54545417,4423.60606016,8.2424242416,4221.15151473,12.3636363624,4844.99999952,8.2424242416,4492.63636319,1458.90909076,42.0,42.0,?
2017-06-01 17:02:24.161832,4550.84848439,12.3636363624,4231.96969655,0.0,3921.33333294,111.272727262,3920.81818143,24.7272727248,4291.21212078,4100.6060602,4465.33333289,2855.99999971,4215.99999958,2649.93939367,4360.75757532,1850.42424224,5002.63636314,2802.42424214,4202.60606019,3758.54545417,4430.30302986,8.2424242416,4222.69696927,12.3636363624,4846.54545406,8.2424242416,4495.72727228,1458.90909076,42.0,42.0,?
2017-06-01 17:02:24.171534,4531.78787833,12.3636363624,4225.27272685,0.0,3922.36363597,111.272727262,3915.66666628,24.7272727248,4277.81818139,4100.6060602,4454.51515107,2855.99999971,4200.54545413,2649.93939367,4353.54545411,1850.42424224,4988.72727223,2802.42424214,4197.96969655,3758.54545417,4422.57575713,8.2424242416,4220.63636321,12.3636363624,4836.75757527,8.2424242416,4478.21212076,1458.90909076,42.0,42.0,?
2017-06-01 17:02:24.177835,4543.12121167,12.3636363624,4232.48484806,0.0,3910.51515112,111.272727262,3909.48484809,24.7272727248,4265.45454503,4100.6060602,4446.78787834,2855.99999971,4189.21212079,2649.93939367,4342.72727229,1850.42424224,4974.81818132,2802.42424214,4183.54545413,3758.54545417,4429.27272683,8.2424242416,4221.15151473,12.3636363624,4847.57575709,8.2424242416,4489.5454541,1458.90909076,42.0,42.0,?
2017-06-01 17:02:24.185852,4541.06060561,12.3636363624,4228.36363594,0.0,3901.75757537,111.272727262,3913.0909087,24.7272727248,4276.27272685,4100.6060602,4448.8484844,2855.99999971,4194.87878746,2649.93939367,4337.57575714,1850.42424224,4971.21212072,2802.42424214,4172.72727231,3758.54545417,4424.63636319,8.2424242416,4221.15151473,12.3636363624,4844.484848,8.2424242416,4483.87878743,1458.90909076,42.0,42.0,?
2017-06-01 17:02:24.194690,4542.60606015,12.3636363624,4229.90909049,0.0,3901.75757537,111.272727262,3914.12121173,24.7272727248,4282.45454503,4100.6060602,4450.39393895,2855.99999971,4195.39393897,2649.93939367,4337.57575714,1850.42424224,4968.63636314,2802.42424214,4174.78787837,3758.54545417,4423.60606016,8.2424242416,4220.63636321,12.3636363624,4845.51515103,8.2424242416,4481.30302985,1458.90909076,42.0,42.0,?
2017-06-01 17:02:24.201012,4545.69696924,12.3636363624,4234.54545412,0.0,3903.30302991,111.272727262,3908.45454506,24.7272727248,4274.21212078,4100.6060602,4449.36363592,2855.99999971,4188.18181776,2649.93939367,4339.12121169,1850.42424224,4972.24242375,2802.42424214,4184.57575716,3758.54545417,4427.72727228,8.2424242416,4219.60606018,12.3636363624,4849.12121164,8.2424242416,4489.5454541,1458.90909076,42.0,42.0,?
2017-06-01 17:02:24.208988,4528.69696924,12.3636363624,4224.24242382,0.0,3912.57575718,111.272727262,3921.84848446,24.7272727248,4278.84848442,4100.6060602,4459.15151471,2855.99999971,4197.45454503,2649.93939367,4350.45454502,1850.42424224,4992.33333283,2802.42424214,4200.03030261,3758.54545417,4421.5454541,8.2424242416,4219.60606018,12.3636363624,4836.75757527,8.2424242416,4479.24242379,1458.90909076,42.0,42.0,?
2017-06-01 17:02:24.218489,4547.24242379,12.3636363624,4229.90909049,0.0,3915.66666628,111.272727262,3924.42424203,24.7272727248,4285.54545412,4100.6060602,4462.2424238,2855.99999971,4202.09090867,2649.93939367,4351.48484805,1850.42424224,4995.93939344,2802.42424214,4202.60606019,3758.54545417,4429.78787834,8.2424242416,4222.69696927,12.3636363624,4846.54545406,8.2424242416,4489.5454541,1458.90909076,42.0,42.0,?
2017-06-01 17:02:24.226159,4541.06060561,12.3636363624,4228.36363594,0.0,3913.60606021,111.272727262,3916.69696931,24.7272727248,4286.06060563,4100.6060602,4455.5454541,2855.99999971,4198.99999958,2649.93939367,4349.42424199,1850.42424224,4991.81818132,2802.42424214,4201.57575716,3758.54545417,4422.57575713,8.2424242416,4220.63636321,12.3636363624,4844.99999952,8.2424242416,4483.36363592,1458.90909076,42.0,42.0,?
2017-06-01 17:02:24.232954,4531.27272682,12.3636363624,4226.8181814,0.0,3915.15151476,111.272727262,3919.7878784,24.7272727248,4286.06060563,4100.6060602,4453.99999955,2855.99999971,4201.06060564,2649.93939367,4354.57575714,1850.42424224,4998.51515102,2802.42424214,4206.72727231,3758.54545417,4419.99999956,8.2424242416,4220.1212117,12.3636363624,4841.90909042,8.2424242416,4479.75757531,1458.90909076,42.0,42.0,?
2017-06-01 17:02:24.240886,4542.60606015,4.1212121208,4230.93939352,0.0,3912.06060567,111.272727262,3917.72727234,24.7272727248,4279.87878745,4100.6060602,4453.48484804,2855.99999971,4203.63636322,2649.93939367,4356.6363632,1850.42424224,4999.03030253,2802.42424214,4203.63636322,3758.54545417,4429.27272683,8.2424242416,4223.7272723,12.3636363624,4844.99999952,8.2424242416,4492.63636319,1458.90909076,42.0,42.0,?
2017-06-01 17:02:24.251216,4530.24242379,4.1212121208,4225.78787837,4.1212121208,3912.57575718,111.272727262,3915.66666628,24.7272727248,4280.90909048,4100.6060602,4455.5454541,2855.99999971,4206.21212079,2649.93939367,4356.6363632,1850.42424224,4992.84848435,2802.42424214,4198.48484806,3758.54545417,4422.57575713,8.2424242416,4220.1212117,12.3636363624,4835.21212073,8.2424242416,4479.75757531,1458.90909076,42.0,42.0,?
2017-06-01 17:02:24.255989,4542.09090864,4.1212121208,4230.93939352,4.1212121208,3915.15151476,111.272727262,3919.27272688,24.7272727248,4280.90909048,4100.6060602,4456.57575713,2855.99999971,4207.24242382,2649.93939367,4356.6363632,1850.42424224,4988.72727223,2802.42424214,4196.93939352,3758.54545417,4428.75757531,8.2424242416,4219.60606018,12.3636363624,4846.03030255,8.2424242416,4487.48484804,1495.99999985,42.0,42.0,?
2017-06-01 17:02:24.265955,4539.51515106,4.1212121208,4225.27272685,4.1212121208,3917.72727234,123.636363624,3919.27272688,24.7272727248,4287.60606018,4100.6060602,4456.06060561,2855.99999971,4211.87878746,2649.93939367,4363.3333329,1850.42424224,5000.57575708,2802.42424214,4205.18181776,3758.54545417,4424.12121168,8.2424242416,4220.1212117,12.3636363624,4843.45454497,8.2424242416,4483.87878743,1495.99999985,42.0,42.0,?
2017-06-01 17:02:24.272410,4531.27272682,4.1212121208,4221.66666624,4.1212121208,3919.27272688,123.636363624,3914.12121173,28.8484848456,4287.60606018,4100.6060602,4460.69696925,2855.99999971,4214.45454503,2649.93939367,4366.42424199,1850.42424224,5011.39393889,2802.42424214,4213.93939352,3758.54545417,4420.51515107,8.2424242416,4221.66666624,12.3636363624,4837.7878783,8.2424242416,4479.24242379,1495.99999985,42.0,42.0,?
2017-06-01 17:02:24.280680,4542.60606015,4.1212121208,4230.93939352,4.1212121208,3920.81818143,123.636363624,3915.15151476,28.8484848456,4281.424242,4059.39393899,4463.78787834,2855.99999971,4210.84848443,2649.93939367,4364.87878744,1850.42424224,5010.36363586,2802.42424214,4218.06060564,3758.54545417,4431.84848441,8.2424242416,4225.27272685,12.3636363624,4847.06060558,8.2424242416,4494.69696925,1495.99999985,42.0,42.0,?
2017-06-01 17:02:24.286977,4529.21212076,4.1212121208,4222.18181776,4.1212121208,3924.42424203,123.636363624,3926.99999961,28.8484848456,4289.15151472,4059.39393899,4463.27272683,2851.87878759,4217.54545412,2649.93939367,4373.6363632,1850.42424224,5017.57575707,2802.42424214,4222.69696927,3758.54545417,4421.03030259,8.2424242416,4222.18181776,12.3636363624,4836.75757527,8.2424242416,4478.21212076,1495.99999985,42.0,42.0,?
2017-06-01 17:02:24.296682,4540.03030258,4.1212121208,4224.75757534,4.1212121208,3916.18181779,123.636363624,3923.90909052,28.8484848456,4287.60606018,4059.39393899,4461.21212077,2851.87878759,4215.99999958,2637.57575731,4368.99999956,1850.42424224,5009.84848435,2802.42424214,4211.87878746,3758.54545417,4426.18181774,8.2424242416,4221.15151473,12.3636363624,4840.36363588,8.2424242416,4482.8484844,1495.99999985,42.0,42.0,?
2017-06-01 17:02:24.302929,4539.51515106,4.1212121208,4226.30302988,4.1212121208,3916.69696931,123.636363624,3919.27272688,28.8484848456,4283.99999957,4059.39393899,4464.30302986,2851.87878759,4207.24242382,2637.57575731,4358.18181775,1854.54545436,4998.51515102,2802.42424214,4204.66666625,3758.54545417,4427.21212077,8.2424242416,4223.21212079,12.3636363624,4842.93939346,8.2424242416,4487.48484804,1495.99999985,42.0,42.0,?
2017-06-01 17:02:24.310950,4527.1515147,4.1212121208,4222.18181776,4.1212121208,3925.96969658,123.636363624,3923.90909052,28.8484848456,4289.15151472,4059.39393899,4465.33333289,2851.87878759,4207.75757534,2637.57575731,4359.72727229,1854.54545436,5003.66666617,2802.42424214,4213.424242,3758.54545417,4418.45454501,8.2424242416,4222.69696927,12.3636363624,4836.24242376,8.2424242416,4477.69696925,1495.99999985,42.0,42.0,?
2017-06-01 17:02:24.318927,4541.06060561,4.1212121208,4230.424242,4.1212121208,3922.87878749,123.636363624,3921.33333294,28.8484848456,4282.45454503,4059.39393899,4459.15151471,2851.87878759,4209.8181814,2637.57575731,4354.06060563,1854.54545436,4997.48484799,2802.42424214,4211.87878746,3758.54545417,4427.72727228,8.2424242416,4221.15151473,12.3636363624,4841.39393891,8.2424242416,4489.03030258,1495.99999985,42.0,42.0,?
2017-06-01 17:02:24.326512,4529.72727227,4.1212121208,4226.30302988,4.1212121208,3926.48484809,123.636363624,3925.96969658,28.8484848456,4282.45454503,4059.39393899,4460.69696925,2851.87878759,4212.39393897,2637.57575731,4350.96969653,1854.54545436,4993.36363586,2802.42424214,4211.36363594,3758.54545417,4422.57575713,12.3636363624,4220.1212117,12.3636363624,4837.27272679,8.2424242416,4479.75757531,1495.99999985,42.0,42.0,?
2017-06-01 17:02:24.335006,4535.90909046,4.1212121208,4229.39393897,4.1212121208,3921.33333294,123.636363624,3919.27272688,28.8484848456,4279.87878745,4059.39393899,4458.63636319,2851.87878759,4207.24242382,2637.57575731,4351.48484805,1854.54545436,4996.96969647,2802.42424214,4212.90909049,3758.54545417,4423.09090865,12.3636363624,4221.15151473,12.3636363624,4847.06060558,8.2424242416,4482.8484844,1495.99999985,42.0,42.0,?
2017-06-01 17:02:24.342113,4540.03030258,4.1212121208,4230.424242,4.1212121208,3912.57575718,123.636363624,3906.90909052,28.8484848456,4273.18181775,4059.39393899,4452.96969652,2851.87878759,4206.21212079,2637.57575731,4353.54545411,1854.54545436,5002.63636314,2802.42424214,4217.03030261,3758.54545417,4425.15151471,12.3636363624,4221.66666624,12.3636363624,4846.54545406,0.0,4489.03030258,1495.99999985,42.0,42.0,?
2017-06-01 17:02:24.350061,4523.54545409,4.1212121208,4224.24242382,4.1212121208,3919.7878784,123.636363624,3914.12121173,28.8484848456,4279.87878745,4059.39393899,4461.72727228,2851.87878759,4220.63636321,2637.57575731,4362.81818138,1854.54545436,5013.96969647,2802.42424214,4225.27272685,3762.66666629,4419.99999956,12.3636363624,4223.7272723,12.3636363624,4832.12121164,0.0,4481.81818137,1495.99999985,42.0,42.0,?
2017-06-01 17:02:24.358780,4539.51515106,4.1212121208,4230.93939352,4.1212121208,3929.57575718,123.636363624,3924.93939355,28.8484848456,4292.24242381,4059.39393899,4475.12121167,2851.87878759,4225.78787837,2637.57575731,4368.99999956,1854.54545436,5018.6060601,2802.42424214,4228.36363594,3762.66666629,4429.27272683,12.3636363624,4227.84848443,12.3636363624,4844.99999952,0.0,4497.27272682,1495.99999985,42.0,42.0,?
2017-06-01 17:02:24.365969,4535.39393894,4.1212121208,4224.24242382,4.1212121208,3944.51515112,123.636363624,3940.90909052,28.8484848456,4309.75757533,4059.39393899,4487.48484804,2851.87878759,4229.39393897,2637.57575731,4376.72727229,1854.54545436,5028.39393889,2802.42424214,4237.63636321,3762.66666629,4423.09090865,12.3636363624,4225.27272685,12.3636363624,4843.96969649,0.0,4492.12121167,1495.99999985,42.0,42.0,?
2017-06-01 17:02:24.373740,4536.42424197,4.1212121208,4224.75757534,4.1212121208,3948.12121173,123.636363624,3946.57575718,28.8484848456,4316.45454502,4059.39393899,4489.03030258,2851.87878759,4235.57575715,2637.57575731,4380.3333329,1854.54545436,5035.09090859,2802.42424214,4241.24242382,3762.66666629,4424.12121168,12.3636363624,4223.21212079,12.3636363624,4842.42424194,0.0,4491.09090864,1495.99999985,42.0,42.0,?
2017-06-01 17:02:24.381818,4540.54545409,4.1212121208,4229.90909049,4.1212121208,3937.30302991,123.636363624,3940.393939,28.8484848456,4307.69696927,4059.39393899,4485.42424198,2851.87878759,4237.63636321,2637.57575731,4377.75757532,1854.54545436,5025.3030298,2802.42424214,4237.1212117,3762.66666629,4429.78787834,12.3636363624,4223.7272723,12.3636363624,4843.96969649,0.0,4494.18181773,1495.99999985,42.0,42.0,?
2017-06-01 17:02:24.391589,4525.09090864,4.1212121208,4224.24242382,4.1212121208,3940.393939,123.636363624,3941.93939355,28.8484848456,4306.15151472,4059.39393899,4490.06060561,2851.87878759,4239.18181776,2637.57575731,4380.84848441,1854.54545436,5020.66666616,2802.42424214,4237.63636321,3762.66666629,4425.15151471,12.3636363624,4221.66666624,12.3636363624,4837.27272679,0.0,4483.87878743,1495.99999985,42.0,42.0,?
2017-06-01 17:02:24.402139,4541.57575712,4.1212121208,4229.90909049,4.1212121208,3941.93939355,123.636363624,3936.78787839,28.8484848456,4304.60606018,4059.39393899,4484.39393895,2851.87878759,4230.424242,2637.57575731,4376.72727229,1854.54545436,5019.12121162,2802.42424214,4229.39393897,3762.66666629,4431.84848441,12.3636363624,4221.66666624,12.3636363624,4846.54545406,0.0,4495.72727228,1495.99999985,42.0,42.0,?
2017-06-01 17:02:24.407086,4536.42424197,4.1212121208,4226.8181814,4.1212121208,3938.84848445,123.636363624,3927.51515112,28.8484848456,4298.93939351,4059.39393899,4472.5454541,2851.87878759,4224.75757534,2637.57575731,4371.06060562,1854.54545436,5022.21212071,2802.42424214,4225.78787837,3762.66666629,4422.57575713,12.3636363624,4220.63636321,12.3636363624,4836.75757527,0.0,4487.99999955,1495.99999985,42.0,42.0,?
2017-06-01 17:02:24.412770,4531.78787833,4.1212121208,4227.33333291,4.1212121208,3939.36363597,123.636363624,3924.42424203,28.8484848456,4296.87878745,4059.39393899,4473.57575713,2851.87878759,4227.33333291,2637.57575731,4373.12121168,1854.54545436,5025.3030298,2802.42424214,4232.48484806,3762.66666629,4422.06060562,12.3636363624,4221.66666624,12.3636363624,4838.30302982,0.0,4488.51515107,1495.99999985,42.0,42.0,?
2017-06-01 17:02:24.419994,4539.51515106,4.1212121208,4231.96969655,4.1212121208,3938.84848445,123.636363624,3929.06060567,28.8484848456,4299.96969654,4059.39393899,4475.12121167,2851.87878759,4221.66666624,2637.57575731,4373.12121168,1854.54545436,5022.72727222,2802.42424214,4235.06060564,3762.66666629,4430.30302986,12.3636363624,4224.24242382,12.3636363624,4849.12121164,0.0,4500.36363591,1495.99999985,42.0,42.0,?
2017-06-01 17:02:24.430330,4525.09090864,4.1212121208,4224.24242382,4.1212121208,3940.90909052,123.636363624,3933.6969693,28.8484848456,4297.90909048,4059.39393899,4469.96969652,2851.87878759,4217.54545412,2637.57575731,4371.06060562,1854.54545436,5023.75757526,2802.42424214,4235.57575715,3762.66666629,4422.06060562,12.3636363624,4220.63636321,12.3636363624,4833.15151467,0.0,4485.42424198,1495.99999985,42.0,42.0,?
2017-06-01 17:02:24.436515,4542.09090864,4.1212121208,4231.45454503,4.1212121208,3937.30302991,123.636363624,3919.7878784,28.8484848456,4282.96969654,4059.39393899,4463.78787834,2851.87878759,4214.96969655,2637.57575731,4365.90909047,1854.54545436,5019.12121162,2802.42424214,4230.93939352,3762.66666629,4428.2424238,12.3636363624,4221.15151473,12.3636363624,4841.39393891,0.0,4496.24242379,1495.99999985,42.0,42.0,?
2017-06-01 17:02:24.444652,4542.09090864,4.1212121208,4229.39393897,4.1212121208,3937.81818142,123.636363624,3916.69696931,28.8484848456,4281.424242,4059.39393899,4465.8484844,2851.87878759,4213.93939352,2637.57575731,4364.87878744,1854.54545436,5013.96969647,2802.42424214,4231.96969655,3762.66666629,4425.66666622,12.3636363624,4222.69696927,12.3636363624,4849.12121164,0.0,4499.33333288,1495.99999985,42.0,42.0,?
2017-06-01 17:02:24.454275,4535.90909046,4.1212121208,4225.78787837,4.1212121208,3941.93939355,123.636363624,3932.15151476,28.8484848456,4292.24242381,4059.39393899,4469.45454501,2851.87878759,4210.33333291,2637.57575731,4362.81818138,1854.54545436,5010.87878738,2802.42424214,4234.54545412,3762.66666629,4424.12121168,12.3636363624,4222.69696927,12.3636363624,4842.42424194,0.0,4491.60606016,1495.99999985,42.0,42.0,?
2017-06-01 17:02:24.461127,4545.18181773,4.1212121208,4230.93939352,4.1212121208,3941.42424203,123.636363624,3938.33333294,28.8484848456,4293.27272684,4059.39393899,4467.90909046,2851.87878759,4201.57575716,2637.57575731,4356.12121169,1854.54545436,5008.81818132,2802.42424214,4224.24242382,3762.66666629,4431.84848441,12.3636363624,4223.21212079,12.3636363624,4841.90909042,0.0,4499.33333288,1495.99999985,42.0,42.0,?
2017-06-01 17:02:24.469695,4528.18181773,4.1212121208,4224.24242382,4.1212121208,3941.42424203,123.636363624,3934.21212082,28.8484848456,4293.27272684,4059.39393899,4467.39393895,2851.87878759,4196.424242,2637.57575731,4354.57575714,1854.54545436,5013.45454495,2802.42424214,4218.57575715,3762.66666629,4423.60606016,12.3636363624,4221.15151473,12.3636363624,4836.24242376,0.0,4487.48484804,1495.99999985,42.0,42.0,?
2017-06-01 17:02:24.476278,4541.06060561,4.1212121208,4230.424242,4.1212121208,3933.6969693,123.636363624,3925.96969658,28.8484848456,4290.69696927,4059.39393899,4461.21212077,2851.87878759,4193.33333291,2637.57575731,4350.45454502,1854.54545436,5007.27272677,2802.42424214,4214.45454503,3762.66666629,4430.30302986,12.3636363624,4224.24242382,12.3636363624,4847.06060558,0.0,4492.63636319,1495.99999985,42.0,42.0,?
2017-06-01 17:02:24.483968,4541.57575712,4.1212121208,4228.87878746,4.1212121208,3930.60606021,123.636363624,3928.03030264,28.8484848456,4293.78787836,4059.39393899,4460.18181774,2851.87878759,4202.09090867,2637.57575731,4354.57575714,1854.54545436,5005.72727223,2802.42424214,4215.99999958,3762.66666629,4429.27272683,12.3636363624,4225.78787837,12.3636363624,4845.51515103,0.0,4490.57575713,1495.99999985,42.0,42.0,?
2017-06-01 17:02:24.491488,4527.1515147,4.1212121208,4223.7272723,4.1212121208,3939.87878748,123.636363624,3939.87878748,28.8484848456,4303.57575715,4059.39393899,4473.57575713,2851.87878759,4218.57575715,2637.57575731,4370.54545411,1854.54545436,5021.69696919,2802.42424214,4231.96969655,3762.66666629,4424.63636319,12.3636363624,4222.69696927,12.3636363624,4838.30302982,0.0,4488.51515107,1495.99999985,42.0,42.0,?
2017-06-01 17:02:24.500836,4540.03030258,4.1212121208,4230.424242,4.1212121208,3942.96969658,123.636363624,3936.78787839,28.8484848456,4299.45454502,4059.39393899,4474.60606016,2851.87878759,4219.60606018,2637.57575731,4371.57575714,1854.54545436,5024.27272677,2802.42424214,4240.7272723,3762.66666629,4431.84848441,12.3636363624,4222.18181776,12.3636363624,4844.484848,0.0,4505.51515106,1495.99999985,42.0,42.0,?
2017-06-01 17:02:24.505953,4531.78787833,4.1212121208,4223.7272723,4.1212121208,3941.42424203,123.636363624,3930.0909087,28.8484848456,4291.7272723,4059.39393899,4465.8484844,2851.87878759,4213.424242,2637.57575731,4364.87878744,1854.54545436,5018.6060601,2802.42424214,4236.09090867,3762.66666629,4421.5454541,12.3636363624,4220.63636321,12.3636363624,4834.1818177,0.0,4491.09090864,1495.99999985,42.0,42.0,?
2017-06-01 17:02:24.514212,4541.06060561,4.1212121208,4227.84848443,4.1212121208,3939.36363597,123.636363624,3932.15151476,28.8484848456,4291.7272723,4059.39393899,4467.39393895,2851.87878759,4211.36363594,2637.57575731,4364.87878744,1854.54545436,5013.45454495,2802.42424214,4230.93939352,3762.66666629,4424.63636319,12.3636363624,4222.69696927,12.3636363624,4843.45454497,0.0,4495.72727228,1495.99999985,42.0,42.0,?
2017-06-01 17:02:24.521985,4541.57575712,4.1212121208,4231.45454503,4.1212121208,3939.36363597,123.636363624,3936.27272688,28.8484848456,4296.87878745,4059.39393899,4471.51515107,2851.87878759,4215.48484806,2637.57575731,4371.57575714,1854.54545436,5012.93939344,2802.42424214,4238.15151473,3762.66666629,4427.72727228,12.3636363624,4224.24242382,12.3636363624,4847.06060558,0.0,4500.87878743,1495.99999985,42.0,42.0,?
2017-06-01 17:02:24.530521,4527.1515147,4.1212121208,4227.33333291,4.1212121208,3935.75757536,123.636363624,3931.63636324,28.8484848456,4290.69696927,4059.39393899,4461.72727228,2851.87878759,4212.90909049,2637.57575731,4370.54545411,1854.54545436,5011.90909041,2802.42424214,4238.66666624,3762.66666629,4421.5454541,12.3636363624,4219.09090867,12.3636363624,4835.21212073,0.0,4485.93939349,1495.99999985,42.0,42.0,?
2017-06-01 17:02:24.539151,4541.57575712,4.1212121208,4231.96969655,4.1212121208,3929.06060567,123.636363624,3919.7878784,28.8484848456,4274.7272723,4059.39393899,4448.33333289,2851.87878759,4196.93939352,2637.57575731,4354.06060563,1854.54545436,5003.15151465,2802.42424214,4221.66666624,3762.66666629,4430.30302986,12.3636363624,4217.54545412,12.3636363624,4844.99999952,0.0,4496.24242379,1495.99999985,42.0,42.0,?
2017-06-01 17:02:24.545645,4531.78787833,4.1212121208,4224.24242382,4.1212121208,3942.96969658,123.636363624,3924.42424203,28.8484848456,4279.87878745,4059.39393899,4457.09090865,2851.87878759,4201.57575716,2637.57575731,4359.72727229,1854.54545436,5013.96969647,2802.42424214,4224.75757534,3762.66666629,4424.63636319,12.3636363624,4220.63636321,12.3636363624,4842.42424194,0.0,4489.5454541,1495.99999985,42.0,42.0,?
2017-06-01 17:02:24.555338,4537.454545,4.1212121208,4228.36363594,4.1212121208,3953.78787839,123.636363624,3933.18181779,28.8484848456,4289.15151472,4059.39393899,4467.39393895,2851.87878759,4219.09090867,2637.57575731,4378.78787835,1854.54545436,5031.48484798,2802.42424214,4243.30302988,3762.66666629,4427.21212077,12.3636363624,4223.7272723,12.3636363624,4845.51515103,0.0,4494.69696925,1495.99999985,42.0,42.0,?
2017-06-01 17:02:24.562713,4543.12121167,4.1212121208,4232.48484806,4.1212121208,3946.57575718,123.636363624,3929.57575718,28.8484848456,4283.48484806,4059.39393899,4461.21212077,2851.87878759,4217.54545412,2637.57575731,4378.27272683,1854.54545436,5030.45454495,2802.42424214,4244.84848442,3762.66666629,4432.87878744,12.3636363624,4222.69696927,12.3636363624,4848.60606012,0.0,4501.39393894,1495.99999985,42.0,42.0,?
2017-06-01 17:02:24.569375,4527.1515147,4.1212121208,4223.7272723,4.1212121208,3942.45454506,123.636363624,3922.36363597,28.8484848456,4280.90909048,4059.39393899,4459.66666622,2851.87878759,4208.78787837,2637.57575731,4370.03030259,1854.54545436,5019.12121162,2802.42424214,4235.06060564,3762.66666629,4424.63636319,12.3636363624,4221.15151473,12.3636363624,4838.81818133,0.0,4490.06060561,1495.99999985,42.0,42.0,?
2017-06-01 17:02:24.577255,4542.60606015,4.1212121208,4230.424242,4.1212121208,3940.90909052,123.636363624,3917.72727234,28.8484848456,4282.96969654,4059.39393899,4460.69696925,2851.87878759,4209.30302988,2637.57575731,4368.99999956,1854.54545436,5009.33333283,2802.42424214,4228.36363594,3762.66666629,4431.84848441,12.3636363624,4223.7272723,12.3636363624,4849.63636315,0.0,4502.42424197,1495.99999985,42.0,42.0,?
2017-06-01 17:02:24.584066,4536.42424197,4.1212121208,4228.87878746,4.1212121208,3950.18181779,123.636363624,3927.51515112,28.8484848456,4290.69696927,4059.39393899,4462.75757531,2851.87878759,4219.09090867,2637.57575731,4378.27272683,1854.54545436,5021.18181768,2802.42424214,4238.66666624,3762.66666629,4426.69696925,12.3636363624,4222.18181776,12.3636363624,4844.99999952,0.0,4494.18181773,1495.99999985,42.0,42.0,?
2017-06-01 17:02:24.592859,4535.39393894,4.1212121208,4230.424242,4.1212121208,3947.0909087,123.636363624,3926.48484809,28.8484848456,4283.99999957,4059.39393899,4462.75757531,2851.87878759,4215.48484806,2637.57575731,4372.60606017,1854.54545436,5022.72727222,2802.42424214,4237.1212117,3762.66666629,4426.69696925,12.3636363624,4221.15151473,12.3636363624,4840.87878739,0.0,4490.57575713,1495.99999985,42.0,42.0,?
2017-06-01 17:02:24.600157,4543.12121167,4.1212121208,4231.96969655,4.1212121208,3934.72727233,123.636363624,3915.15151476,28.8484848456,4273.69696927,4059.39393899,4457.09090865,2851.87878759,4203.1212117,2637.57575731,4357.66666623,1854.54545436,5005.21212071,2802.42424214,4223.7272723,3762.66666629,4429.78787834,12.3636363624,4221.66666624,12.3636363624,4843.96969649,0.0,4498.81818137,1495.99999985,42.0,42.0,?
2017-06-01 17:02:24.609995,4527.1515147,4.1212121208,4223.21212079,4.1212121208,3941.93939355,123.636363624,3922.87878749,28.8484848456,4286.06060563,4059.39393899,4462.75757531,2851.87878759,4210.84848443,2637.57575731,4365.39393896,1854.54545436,5012.42424192,2802.42424214,4230.93939352,3762.66666629,4421.5454541,12.3636363624,4221.15151473,12.3636363624,4835.72727224,0.0,4486.45454501,1495.99999985,42.0,42.0,?
2017-06-01 17:02:24.616816,4542.60606015,4.1212121208,4230.93939352,4.1212121208,3942.96969658,123.636363624,3925.45454506,28.8484848456,4291.21212078,4059.39393899,4467.90909046,2851.87878759,4214.96969655,2637.57575731,4368.48484805,1854.54545436,5017.57575707,2802.42424214,4232.99999958,3762.66666629,4429.27272683,12.3636363624,4224.24242382,12.3636363624,4844.99999952,0.0,4494.69696925,1495.99999985,42.0,42.0,?
2017-06-01 17:02:24.625586,4540.03030258,4.1212121208,4229.39393897,4.1212121208,3931.12121173,123.636363624,3921.84848446,28.8484848456,4283.99999957,4059.39393899,4460.18181774,2851.87878759,4201.06060564,2637.57575731,4355.60606017,1854.54545436,5003.15151465,2802.42424214,4220.63636321,3762.66666629,4422.57575713,12.3636363624,4221.15151473,12.3636363624,4842.42424194,0.0,4489.03030258,1495.99999985,42.0,42.0,?
2017-06-01 17:02:24.631864,4532.81818136,4.1212121208,4225.78787837,4.1212121208,3928.54545415,123.636363624,3928.54545415,28.8484848456,4287.09090866,4059.39393899,4456.06060561,2851.87878759,4195.39393897,2637.57575731,4349.9393935,1854.54545436,4995.42424192,2802.42424214,4214.96969655,3762.66666629,4419.99999956,12.3636363624,4219.09090867,12.3636363624,4841.39393891,0.0,4485.42424198,1495.99999985,42.0,42.0,?
2017-06-01 17:02:24.640903,4541.57575712,4.1212121208,4228.36363594,4.1212121208,3935.24242385,123.636363624,3936.27272688,28.8484848456,4294.30302987,4059.39393899,4462.75757531,2851.87878759,4204.66666625,2637.57575731,4358.69696926,1854.54545436,5007.27272677,2802.42424214,4220.1212117,3762.66666629,4431.84848441,12.3636363624,4222.18181776,12.3636363624,4847.57575709,0.0,4498.30302985,1495.99999985,42.0,42.0,?
2017-06-01 17:02:24.647171,4530.24242379,4.1212121208,4222.69696927,4.1212121208,3936.27272688,123.636363624,3937.81818142,28.8484848456,4291.7272723,4059.39393899,4462.75757531,2851.87878759,4211.87878746,2637.57575731,4366.9393935,1854.54545436,5017.06060556,2802.42424214,4223.7272723,3762.66666629,4424.12121168,12.3636363624,4220.1212117,12.3636363624,4837.7878783,0.0,4485.93939349,1495.99999985,42.0,42.0,?
2017-06-01 17:02:24.655156,4541.57575712,4.1212121208,4230.424242,4.1212121208,3924.42424203,123.636363624,3927.51515112,28.8484848456,4277.30302988,4059.39393899,4451.42424198,2851.87878759,4204.66666625,2637.57575731,4356.6363632,1854.54545436,5000.06060556,2802.42424214,4213.424242,3762.66666629,4427.21212077,12.3636363624,4220.1212117,12.3636363624,4847.06060558,0.0,4490.57575713,1495.99999985,42.0,42.0,?
2017-06-01 17:02:24.663628,4538.99999955,4.1212121208,4228.36363594,4.1212121208,3922.87878749,123.636363624,3915.66666628,28.8484848456,4275.24242381,4059.39393899,4450.90909046,2851.87878759,4197.96969655,2637.57575731,4350.45454502,1854.54545436,4992.33333283,2802.42424214,4210.33333291,3762.66666629,4425.66666622,12.3636363624,4221.66666624,12.3636363624,4844.484848,0.0,4487.99999955,1495.99999985,42.0,42.0,?
2017-06-01 17:02:24.671092,4531.27272682,4.1212121208,4223.21212079,4.1212121208,3923.90909052,123.636363624,3911.03030264,28.8484848456,4280.90909048,4059.39393899,4453.99999955,2851.87878759,4194.36363594,2637.57575731,4354.06060563,1854.54545436,5001.09090859,2802.42424214,4215.99999958,3762.66666629,4423.09090865,12.3636363624,4221.66666624,12.3636363624,4834.69696921,0.0,4483.87878743,1495.99999985,42.0,42.0,?
2017-06-01 17:02:24.678520,4541.57575712,4.1212121208,4229.90909049,4.1212121208,3918.24242385,123.636363624,3916.18181779,28.8484848456,4279.87878745,4059.39393899,4450.39393895,2851.87878759,4191.78787837,2637.57575731,4351.48484805,1854.54545436,5001.09090859,2802.42424214,4217.54545412,3762.66666629,4431.33333289,12.3636363624,4222.18181776,12.3636363624,4842.93939346,0.0,4497.78787834,1495.99999985,42.0,42.0,?
2017-06-01 17:02:24.686394,4528.69696924,4.1212121208,4225.78787837,4.1212121208,3923.90909052,123.636363624,3925.96969658,28.8484848456,4281.424242,4059.39393899,4452.45454501,2851.87878759,4197.96969655,2637.57575731,4353.03030259,1854.54545436,4999.54545405,2802.42424214,4220.1212117,3762.66666629,4424.63636319,12.3636363624,4220.1212117,12.3636363624,4836.75757527,0.0,4480.78787834,1495.99999985,42.0,42.0,?
2017-06-01 17:02:24.696433,4541.06060561,4.1212121208,4231.96969655,4.1212121208,3922.87878749,123.636363624,3918.24242385,28.8484848456,4276.78787836,4059.39393899,4452.45454501,2851.87878759,4194.36363594,2637.57575731,4350.45454502,1854.54545436,4997.48484799,2802.42424214,4212.90909049,3762.66666629,4428.2424238,12.3636363624,4222.69696927,12.3636363624,4842.93939346,0.0,4481.30302985,1495.99999985,42.0,42.0,?
2017-06-01 17:02:24.702178,4540.03030258,4.1212121208,4231.45454503,4.1212121208,3920.30302991,123.636363624,3912.06060567,28.8484848456,4272.66666624,4059.39393899,4451.93939349,2851.87878759,4189.72727231,2637.57575731,4347.87878744,1854.54545436,4996.96969647,2802.42424214,4210.33333291,3762.66666629,4425.66666622,12.3636363624,4221.66666624,12.3636363624,4845.51515103,0.0,4487.48484804,1495.99999985,42.0,42.0,?
2017-06-01 17:02:24.711073,4526.63636318,4.1212121208,4225.27272685,4.1212121208,3925.45454506,123.636363624,3916.69696931,28.8484848456,4277.30302988,4059.39393899,4453.48484804,2851.87878759,4194.87878746,2637.57575731,4350.96969653,1854.54545436,4991.3030298,2802.42424214,4215.48484806,3762.66666629,4421.03030259,12.3636363624,4217.03030261,12.3636363624,4838.81818133,0.0,4482.33333289,1495.99999985,42.0,42.0,?
2017-06-01 17:02:24.718515,4541.57575712,4.1212121208,4230.424242,4.1212121208,3924.42424203,123.636363624,3915.15151476,28.8484848456,4276.27272685,4059.39393899,4451.93939349,2851.87878759,4196.424242,2637.57575731,4346.84848441,1854.54545436,4981.51515102,2802.42424214,4209.8181814,3762.66666629,4432.87878744,12.3636363624,4220.63636321,12.3636363624,4843.45454497,0.0,4492.12121167,1495.99999985,42.0,42.0,?
2017-06-01 17:02:24.726367,4532.30302985,4.1212121208,4223.7272723,4.1212121208,3929.06060567,123.636363624,3917.72727234,28.8484848456,4277.30302988,4059.39393899,4452.45454501,2851.87878759,4201.57575716,2637.57575731,4348.39393896,1854.54545436,4993.36363586,2802.42424214,4212.39393897,3762.66666629,4424.12121168,12.3636363624,4224.24242382,12.3636363624,4835.21212073,0.0,4483.87878743,1495.99999985,42.0,42.0,?
2017-06-01 17:02:24.734690,4538.48484803,4.1212121208,4227.84848443,4.1212121208,3929.57575718,123.636363624,3916.18181779,28.8484848456,4276.78787836,4059.39393899,4452.45454501,2851.87878759,4202.09090867,2637.57575731,4350.45454502,1854.54545436,5002.12121162,2802.42424214,4213.93939352,3762.66666629,4424.63636319,12.3636363624,4224.24242382,12.3636363624,4842.93939346,0.0,4490.06060561,1495.99999985,42.0,42.0,?
2017-06-01 17:02:24.742344,4542.60606015,4.1212121208,4230.424242,4.1212121208,3921.33333294,123.636363624,3912.57575718,28.8484848456,4272.66666624,4059.39393899,4450.90909046,2851.87878759,4196.93939352,2637.57575731,4344.27272684,1854.54545436,4988.21212071,2802.42424214,4206.21212079,3762.66666629,4430.81818138,12.3636363624,4223.7272723,12.3636363624,4845.51515103,0.0,4493.1515147,1495.99999985,42.0,42.0,?
2017-06-01 17:02:24.749872,4529.21212076,4.1212121208,4223.21212079,4.1212121208,3923.393939,123.636363624,3920.81818143,28.8484848456,4275.24242381,4059.39393899,4453.48484804,2851.87878759,4200.03030261,2637.57575731,4341.69696926,1854.54545436,4985.63636314,2802.42424214,4211.36363594,3762.66666629,4424.63636319,12.3636363624,4224.75757534,12.3636363624,4834.1818177,0.0,4482.8484844,1495.99999985,42.0,42.0,?
2017-06-01 17:02:24.757195,4545.18181773,4.1212121208,4230.424242,0.0,3930.60606021,123.636363624,3924.93939355,28.8484848456,4278.33333291,4059.39393899,4457.09090865,2851.87878759,4200.54545413,2637.57575731,4345.30302987,1854.54545436,4993.36363586,2802.42424214,4217.54545412,3762.66666629,4427.21212077,12.3636363624,4225.78787837,12.3636363624,4842.93939346,0.0,4497.27272682,1495.99999985,42.0,42.0,?
2017-06-01 17:02:24.764739,4537.454545,4.1212121208,4225.78787837,0.0,3926.99999961,123.636363624,3922.36363597,28.8484848456,4280.90909048,4059.39393899,4458.12121168,2851.87878759,4198.99999958,2637.57575731,4349.9393935,1854.54545436,4991.81818132,2802.42424214,4214.96969655,3762.66666629,4422.06060562,12.3636363624,4219.60606018,12.3636363624,4839.33333285,0.0,4485.93939349,1491.87878773,42.0,42.0,?
2017-06-01 17:02:24.773361,4535.39393894,4.1212121208,4225.27272685,0.0,3912.57575718,119.515151503,3914.63636324,28.8484848456,4276.27272685,4059.39393899,4451.42424198,2851.87878759,4197.96969655,2637.57575731,4345.81818138,1854.54545436,4980.9999995,2802.42424214,4208.78787837,3762.66666629,4427.21212077,12.3636363624,4218.06060564,12.3636363624,4841.39393891,0.0,4483.36363592,1491.87878773,42.0,42.0,?
2017-06-01 17:02:24.780973,4538.99999955,4.1212121208,4230.424242,0.0,3912.57575718,119.515151503,3911.03030264,20.606060604,4273.69696927,4059.39393899,4449.36363592,2851.87878759,4201.06060564,2637.57575731,4342.72727229,1854.54545436,4980.9999995,2802.42424214,4211.36363594,3762.66666629,4429.78787834,12.3636363624,4221.66666624,12.3636363624,4846.54545406,0.0,4492.12121167,1491.87878773,42.0,42.0,?
2017-06-01 17:02:24.791754,4525.09090864,4.1212121208,4225.78787837,0.0,3926.99999961,119.515151503,3919.7878784,20.606060604,4282.96969654,4055.27272687,4457.09090865,2851.87878759,4203.63636322,2637.57575731,4349.9393935,1854.54545436,4995.93939344,2802.42424214,4221.66666624,3762.66666629,4424.12121168,12.3636363624,4221.66666624,12.3636363624,4837.27272679,0.0,4480.27272682,1491.87878773,42.0,42.0,?
2017-06-01 17:02:24.796808,4538.99999955,4.1212121208,4229.90909049,0.0,3928.03030264,119.515151503,3921.33333294,20.606060604,4284.51515109,4055.27272687,4453.99999955,2860.12121184,4192.30302988,2637.57575731,4347.36363593,1854.54545436,4991.81818132,2802.42424214,4221.15151473,3762.66666629,4433.39393895,12.3636363624,4223.21212079,12.3636363624,4843.45454497,0.0,4492.63636319,1491.87878773,42.0,42.0,?
2017-06-01 17:02:24.805221,4534.36363591,4.1212121208,4225.78787837,0.0,3934.72727233,119.515151503,3925.45454506,20.606060604,4287.60606018,4055.27272687,4450.90909046,2860.12121184,4193.33333291,2637.57575731,4348.90909047,1854.54545436,4989.24242374,2802.42424214,4225.27272685,3762.66666629,4422.06060562,12.3636363624,4220.63636321,12.3636363624,4838.81818133,0.0,4492.12121167,1491.87878773,42.0,42.0,?
2017-06-01 17:02:24.812872,4533.33333288,4.1212121208,4227.84848443,0.0,3940.90909052,119.515151503,3926.99999961,20.606060604,4287.60606018,4055.27272687,4457.09090865,2860.12121184,4208.78787837,2637.57575731,4358.69696926,1846.30303012,5002.63636314,2802.42424214,4232.99999958,3762.66666629,4420.51515107,12.3636363624,4219.09090867,12.3636363624,4840.87878739,0.0,4489.03030258,1491.87878773,42.0,42.0,?
2017-06-01 17:02:24.819564,4541.57575712,4.1212121208,4232.48484806,0.0,3928.54545415,119.515151503,3919.27272688,20.606060604,4280.39393897,4055.27272687,4457.09090865,2860.12121184,4210.84848443,2637.57575731,4356.6363632,1846.30303012,5005.72727223,2802.42424214,4229.39393897,3762.66666629,4430.81818138,12.3636363624,4221.66666624,12.3636363624,4846.03030255,0.0,4493.66666622,1491.87878773,42.0,42.0,?
2017-06-01 17:02:24.831860,4526.12121167,4.1212121208,4223.21212079,0.0,3925.96969658,119.515151503,3922.87878749,20.606060604,4285.54545412,4055.27272687,4462.2424238,2860.12121184,4214.45454503,2637.57575731,4356.12121169,1846.30303012,5004.6969692,2802.42424214,4225.78787837,3766.78787841,4423.09090865,12.3636363624,4221.66666624,12.3636363624,4834.69696921,0.0,4481.81818137,1491.87878773,42.0,42.0,?
2017-06-01 17:02:24.836287,4542.09090864,4.1212121208,4230.424242,0.0,3928.54545415,119.515151503,3925.96969658,20.606060604,4294.30302987,4055.27272687,4469.96969652,2860.12121184,4223.7272723,2637.57575731,4360.24242381,1846.30303012,5002.63636314,2802.42424214,4221.15151473,3766.78787841,4429.27272683,4.1212121208,4222.18181776,12.3636363624,4845.51515103,0.0,4491.09090864,1491.87878773,42.0,42.0,?
2017-06-01 17:02:24.845159,4541.06060561,4.1212121208,4227.33333291,0.0,3925.96969658,119.515151503,3928.03030264,20.606060604,4298.93939351,4055.27272687,4468.42424198,2860.12121184,4226.30302988,2637.57575731,4362.81818138,1846.30303012,5002.12121162,2802.42424214,4217.03030261,3766.78787841,4428.2424238,4.1212121208,4220.63636321,8.2424242416,4844.484848,0.0,4486.45454501,1491.87878773,42.0,42.0,?
2017-06-01 17:02:24.850217,4531.78787833,4.1212121208,4222.69696927,0.0,3924.93939355,119.515151503,3928.54545415,20.606060604,4297.90909048,4055.27272687,4465.8484844,2860.12121184,4222.69696927,2637.57575731,4360.75757532,1846.30303012,5001.60606011,2802.42424214,4215.48484806,3766.78787841,4424.12121168,4.1212121208,4222.69696927,8.2424242416,4836.75757527,4.1212121208,4483.36363592,1491.87878773,42.0,42.0,?
2017-06-01 17:02:24.858258,4540.54545409,4.1212121208,4228.87878746,0.0,3922.36363597,119.515151503,3924.93939355,20.606060604,4290.18181775,4055.27272687,4464.30302986,2860.12121184,4215.99999958,2637.57575731,4357.15151472,1846.30303012,5000.57575708,2802.42424214,4213.93939352,3766.78787841,4429.78787834,4.1212121208,4225.27272685,8.2424242416,4846.03030255,4.1212121208,4495.72727228,1491.87878773,42.0,42.0,?
2017-06-01 17:02:24.866923,4528.69696924,4.1212121208,4223.7272723,0.0,3919.7878784,119.515151503,3923.393939,20.606060604,4285.0303026,4055.27272687,4457.60606016,2860.12121184,4212.90909049,2637.57575731,4357.66666623,1846.30303012,5004.6969692,2802.42424214,4214.96969655,3766.78787841,4421.5454541,4.1212121208,4221.66666624,8.2424242416,4840.36363588,4.1212121208,4478.72727228,1491.87878773,42.0,42.0,?
2017-06-01 17:02:24.874786,4542.09090864,4.1212121208,4225.78787837,0.0,3917.21212082,119.515151503,3917.72727234,20.606060604,4277.30302988,4055.27272687,4447.81818137,2860.12121184,4209.30302988,2637.57575731,4351.48484805,1846.30303012,4993.87878738,2802.42424214,4209.8181814,3766.78787841,4426.69696925,4.1212121208,4221.15151473,8.2424242416,4844.99999952,4.1212121208,4485.42424198,1491.87878773,42.0,42.0,?
2017-06-01 17:02:24.883276,4539.51515106,4.1212121208,4224.24242382,0.0,3929.06060567,119.515151503,3922.36363597,20.606060604,4279.87878745,4055.27272687,4450.90909046,2860.12121184,4213.93939352,2637.57575731,4352.51515108,1846.30303012,4990.27272677,2802.42424214,4214.45454503,3766.78787841,4424.63636319,4.1212121208,4221.15151473,8.2424242416,4842.42424194,4.1212121208,4490.57575713,1491.87878773,42.0,42.0,?
2017-06-01 17:02:24.891049,4526.63636318,4.1212121208,4225.27272685,0.0,3945.03030264,119.515151503,3933.6969693,20.606060604,4293.78787836,4055.27272687,4463.27272683,2860.12121184,4225.27272685,2637.57575731,4362.81818138,1846.30303012,5007.78787829,2802.42424214,4230.93939352,3766.78787841,4420.51515107,4.1212121208,4220.63636321,8.2424242416,4836.75757527,4.1212121208,4486.96969652,1491.87878773,42.0,42.0,?
2017-06-01 17:02:24.897201,4540.54545409,4.1212121208,4233.51515109,0.0,3942.45454506,119.515151503,3933.18181779,20.606060604,4292.24242381,4055.27272687,4466.36363592,2860.12121184,4228.36363594,2637.57575731,4366.9393935,1846.30303012,5020.15151465,2802.42424214,4237.63636321,3766.78787841,4429.27272683,4.1212121208,4222.18181776,8.2424242416,4847.06060558,4.1212121208,4499.33333288,1491.87878773,42.0,42.0,?
2017-06-01 17:02:24.905228,4532.81818136,4.1212121208,4226.30302988,0.0,3939.36363597,119.515151503,3933.18181779,20.606060604,4291.7272723,4055.27272687,4466.36363592,2860.12121184,4231.96969655,2637.57575731,4374.66666623,1846.30303012,5023.75757526,2802.42424214,4238.15151473,3766.78787841,4420.51515107,4.1212121208,4221.15151473,8.2424242416,4838.81818133,4.1212121208,4485.93939349,1491.87878773,42.0,42.0,?
2017-06-01 17:02:24.913863,4542.09090864,4.1212121208,4228.36363594,0.0,3934.72727233,119.515151503,3928.54545415,20.606060604,4293.78787836,4055.27272687,4464.30302986,2860.12121184,4226.30302988,2637.57575731,4368.99999956,1846.30303012,5019.63636313,2802.42424214,4230.93939352,3766.78787841,4424.12121168,4.1212121208,4223.7272723,8.2424242416,4842.42424194,4.1212121208,4488.51515107,1491.87878773,42.0,42.0,?
2017-06-01 17:02:24.925462,4541.06060561,4.1212121208,4225.78787837,0.0,3931.63636324,119.515151503,3925.45454506,20.606060604,4288.63636321,4055.27272687,4458.63636319,2860.12121184,4216.51515109,2637.57575731,4358.69696926,1846.30303012,5019.12121162,2802.42424214,4231.45454503,3766.78787841,4428.75757531,4.1212121208,4224.24242382,8.2424242416,4846.54545406,4.1212121208,4492.63636319,1491.87878773,42.0,42.0,?
