Timestamp,F3 Value,F3 Quality,FC5 Value,FC5 Quality,F7 Value,F7 Quality,T7 Value,T7 Quality,P7 Value,P7 Quality,O1 Value,O1 Quality,O2 Value,O2 Quality,P8 Value,P8 Quality,T8 Value,T8 Quality,F8 Value,F8 Quality,AF4 Value,AF4 Quality,FC6 Value,FC6 Quality,F4 Value,F4 Quality,AF3 Value,AF3 Quality,X Value,Y Value,Z Value
2017-06-01 16:50:46.896898,8281.57575675,0,3264.51515119,0,80.3636363556,0,6377.57575694,0,4292.24242381,0,1390.90909077,0,6464.63636299,0,3922.36363597,0,6780.93939326,0,2613.87878762,0,1608.30303014,0,5462.66666612,0,4221.15151473,0,3001.78787849,0,42.0,42.0,?
2017-06-01 16:50:46.897015,4544.66666621,0,4221.66666624,0,3935.75757536,0,3929.57575718,0,4289.66666624,0,4480.78787834,0,4212.39393897,0,4351.48484805,0,5002.12121162,0,4220.63636321,0,4428.75757531,0,4228.87878746,0,4839.84848436,0,4501.39393894,0,42.0,42.0,?
2017-06-01 16:50:46.899286,4544.66666621,0,4221.66666624,0,3933.18181779,0,3915.15151476,0,4289.66666624,0,4478.21212076,0,4212.39393897,0,4346.84848441,0,5011.39393889,0,4218.06060564,0,4425.15151471,0,4228.87878746,0,4840.36363588,0,4499.33333288,0,42.0,42.0,?
2017-06-01 16:50:46.904085,4543.12121167,0,4223.21212079,0,3939.36363597,0,3930.0909087,0,4297.39393896,0,4490.57575713,0,4213.424242,0,4344.27272684,0,5004.18181768,0,4214.45454503,0,4424.63636319,0,4226.30302988,0,4842.93939346,0,4498.30302985,0,42.0,42.0,?
2017-06-01 16:50:46.907039,4542.09090864,0,4226.30302988,0,3942.96969658,0,3933.18181779,0,4294.30302987,0,4490.06060561,0,4214.96969655,0,4349.42424199,0,4996.96969647,0,4212.39393897,0,4426.18181774,0,4224.24242382,0,4841.39393891,0,4499.8484844,0,42.0,42.0,?
2017-06-01 16:50:46.912545,4542.60606015,0,4223.21212079,0,3937.30302991,0,3921.33333294,0,4287.60606018,0,4480.78787834,0,4217.03030261,0,4350.45454502,0,5009.84848435,0,4212.90909049,0,4425.66666622,0,4225.78787837,0,4839.33333285,0,4498.81818137,0,42.0,42.0,?
2017-06-01 16:50:46.916635,4544.66666621,0,4221.66666624,0,3934.72727233,0,3925.45454506,0,4298.93939351,0,4485.42424198,0,4217.03030261,0,4350.96969653,0,5017.06060556,0,4213.424242,0,4424.12121168,0,4228.36363594,0,4841.90909042,0,4499.8484844,0,42.0,42.0,?
2017-06-01 16:50:46.919714,4542.09090864,0,4222.18181776,0,3932.66666627,0,3926.48484809,0,4302.0303026,0,4484.39393895,0,4213.424242,0,4354.06060563,0,5004.6969692,0,4208.27272685,0,4425.66666622,0,4227.84848443,0,4841.90909042,0,4500.36363591,0,42.0,42.0,?
2017-06-01 16:50:46.922573,4540.54545409,0,4222.18181776,0,3930.60606021,0,3922.87878749,0,4289.66666624,0,4480.78787834,0,4220.63636321,0,4356.12121169,0,5003.66666617,0,4207.75757534,0,4428.75757531,0,4227.33333291,0,4840.87878739,0,4499.8484844,0,42.0,42.0,?
2017-06-01 16:50:46.925847,4544.66666621,0,4222.18181776,0,3938.33333294,0,3924.93939355,0,4292.24242381,0,4492.12121167,0,4236.09090867,0,4361.78787835,0,5019.12121162,0,4217.03030261,0,4427.21212077,0,4230.424242,0,4843.96969649,0,4501.39393894,0,42.0,42.0,?
2017-06-01 16:50:46.929248,4543.63636318,0,4221.66666624,0,3944.51515112,0,3923.393939,0,4307.18181775,0,4498.81818137,0,4237.63636321,0,4367.96969653,0,5025.3030298,0,4221.66666624,0,4424.12121168,0,4228.36363594,0,4841.90909042,0,4503.96969652,0,42.0,42.0,?
2017-06-01 16:50:46.932487,4541.06060561,0,4222.18181776,0,3936.27272688,0,3915.66666628,0,4306.15151472,0,4490.06060561,0,4220.63636321,0,4358.69696926,0,5014.9999995,0,4211.36363594,0,4426.69696925,0,4225.78787837,0,4838.81818133,0,4504.48484803,0,42.0,42.0,?
2017-06-01 16:50:46.935846,4541.57575712,0,4222.18181776,0,3925.45454506,0,3903.30302991,0,4295.84848442,0,4486.45454501,0,4208.78787837,0,4345.81818138,0,5004.18181768,0,4203.1212117,0,4425.66666622,0,4228.87878746,0,4842.42424194,0,4499.33333288,0,42.0,42.0,?
2017-06-01 16:50:46.938580,4544.66666621,8.2424242416,4223.21212079,0,3927.51515112,0,3905.87878749,0,4299.96969654,0,4497.27272682,0,4216.51515109,0,4351.48484805,0,5002.63636314,0,4211.36363594,0,4423.60606016,0,4230.424242,0,4843.96969649,0,4497.78787834,0,42.0,42.0,?
2017-06-01 16:50:46.942007,4545.69696924,8.2424242416,4225.27272685,8.2424242416,3933.18181779,0,3932.15151476,0,4311.30302987,0,4503.454545,0,4223.21212079,0,4358.18181775,0,5004.6969692,0,4218.06060564,0,4427.72727228,0,4227.33333291,0,4839.33333285,0,4500.87878743,0,42.0,42.0,?
2017-06-01 16:50:46.945989,4542.60606015,8.2424242416,4224.24242382,8.2424242416,3934.21212082,0,3946.06060567,0,4311.30302987,0,4499.8484844,0,4214.96969655,0,4350.45454502,0,5007.27272677,0,4213.424242,0,4428.2424238,0,4224.24242382,0,4837.7878783,0,4501.39393894,2171.87878766,42.0,42.0,?
2017-06-01 16:50:46.949078,4542.09090864,8.2424242416,4222.69696927,8.2424242416,3929.57575718,160.727272711,3930.60606021,0,4295.3333329,0,4493.66666622,0,4206.72727231,0,4343.75757532,0,5004.6969692,0,4214.45454503,0,4425.15151471,0,4226.30302988,0,4841.90909042,0,4499.8484844,2171.87878766,42.0,42.0,?
2017-06-01 16:50:46.955938,4543.63636318,8.2424242416,4222.69696927,8.2424242416,3924.93939355,160.727272711,3921.84848446,115.393939382,4286.57575715,0,4487.99999955,0,4209.8181814,0,4345.30302987,0,4999.03030253,0,4222.69696927,0,4425.66666622,0,4228.36363594,0,4841.39393891,0,4496.24242379,2171.87878766,42.0,42.0,?
2017-06-01 16:50:46.963185,4543.63636318,8.2424242416,4222.69696927,8.2424242416,3929.57575718,160.727272711,3923.393939,115.393939382,4296.36363593,4183.03030261,4487.48484804,0,4214.96969655,0,4349.9393935,0,5004.6969692,0,4221.66666624,0,4427.21212077,0,4227.84848443,0,4839.33333285,0,4496.24242379,2171.87878766,42.0,42.0,?
2017-06-01 16:50:46.973326,4547.24242379,8.2424242416,4223.21212079,8.2424242416,3934.21212082,160.727272711,3916.18181779,115.393939382,4304.60606018,4183.03030261,4490.57575713,3498.90909056,4215.48484806,0,4354.06060563,0,5011.39393889,0,4215.99999958,0,4425.15151471,0,4226.8181814,0,4840.87878739,0,4502.42424197,2171.87878766,42.0,42.0,?
2017-06-01 16:50:46.980154,4545.69696924,8.2424242416,4222.69696927,8.2424242416,3926.99999961,160.727272711,3909.48484809,115.393939382,4293.78787836,4183.03030261,4487.99999955,3498.90909056,4215.99999958,2719.99999973,4350.45454502,0,5000.06060556,0,4211.36363594,0,4425.15151471,0,4227.33333291,0,4841.39393891,0,4499.33333288,2171.87878766,42.0,42.0,?
2017-06-01 16:50:46.987289,4542.60606015,8.2424242416,4223.21212079,8.2424242416,3920.30302991,160.727272711,3907.42424203,115.393939382,4278.33333291,4183.03030261,4479.75757531,3498.90909056,4215.99999958,2719.99999973,4342.21212078,2077.09090888,4991.3030298,0,4204.66666625,0,4429.27272683,0,4228.87878746,0,4841.39393891,0,4495.21212076,2171.87878766,42.0,42.0,?
2017-06-01 16:50:46.994885,4539.51515106,8.2424242416,4222.18181776,8.2424242416,3931.63636324,160.727272711,3920.81818143,115.393939382,4289.15151472,4183.03030261,4486.96969652,3498.90909056,4222.69696927,2719.99999973,4351.99999956,2077.09090888,5009.84848435,2909.57575728,4211.87878746,0,4428.2424238,0,4228.36363594,0,4841.39393891,0,4499.33333288,2171.87878766,42.0,42.0,?
2017-06-01 16:50:47.001677,4538.99999955,8.2424242416,4221.15151473,8.2424242416,3944.51515112,160.727272711,3940.393939,115.393939382,4315.42424199,4183.03030261,4501.90909046,3498.90909056,4234.03030261,2719.99999973,4367.96969653,2077.09090888,5026.84848435,2909.57575728,4230.424242,3935.75757536,4426.18181774,0,4227.84848443,0,4840.36363588,0,4503.454545,2171.87878766,42.0,42.0,?
2017-06-01 16:50:47.010179,4545.18181773,8.2424242416,4221.66666624,8.2424242416,3936.78787839,160.727272711,3934.21212082,115.393939382,4313.36363593,4183.03030261,4496.24242379,3498.90909056,4225.78787837,2719.99999973,4358.69696926,2077.09090888,5013.96969647,2909.57575728,4225.78787837,3935.75757536,4428.75757531,0.0,4227.84848443,0,4840.87878739,0,4500.87878743,2171.87878766,42.0,42.0,?
2017-06-01 16:50:47.019757,4543.12121167,8.2424242416,4221.66666624,8.2424242416,3929.06060567,160.727272711,3919.27272688,115.393939382,4296.36363593,4183.03030261,4483.87878743,3498.90909056,4211.36363594,2719.99999973,4342.72727229,2077.09090888,5003.15151465,2909.57575728,4211.36363594,3935.75757536,4427.72727228,0.0,4228.36363594,0.0,4839.84848436,0,4497.27272682,2171.87878766,42.0,42.0,?
2017-06-01 16:50:47.025934,4541.06060561,8.2424242416,4223.21212079,8.2424242416,3932.66666627,160.727272711,3924.93939355,115.393939382,4299.96969654,4183.03030261,4486.96969652,3498.90909056,4214.96969655,2719.99999973,4348.39393896,2077.09090888,5006.24242374,2909.57575728,4215.99999958,3935.75757536,4424.63636319,0.0,4228.87878746,0.0,4837.7878783,8.2424242416,4497.78787834,2171.87878766,42.0,42.0,?
2017-06-01 16:50:47.033815,4543.63636318,8.2424242416,4225.27272685,8.2424242416,3929.06060567,160.727272711,3927.51515112,115.393939382,4306.66666624,4183.03030261,4491.60606016,3498.90909056,4222.69696927,2719.99999973,4356.12121169,2077.09090888,5001.60606011,2909.57575728,4223.21212079,3935.75757536,4426.18181774,0.0,4228.36363594,0.0,4840.36363588,8.2424242416,4496.75757531,2171.87878766,42.0,42.0,?
2017-06-01 16:50:47.040808,4540.03030258,8.2424242416,4223.21212079,8.2424242416,3925.45454506,160.727272711,3912.57575718,115.393939382,4305.63636321,4183.03030261,4491.09090864,3498.90909056,4227.33333291,2719.99999973,4356.12121169,2077.09090888,5002.12121162,2909.57575728,4220.1212117,3935.75757536,4430.30302986,8.2424242416,4227.33333291,0.0,4842.93939346,8.2424242416,4494.18181773,2171.87878766,42.0,42.0,?
2017-06-01 16:50:47.050205,4539.51515106,8.2424242416,4223.7272723,8.2424242416,3926.99999961,160.727272711,3913.0909087,115.393939382,4303.06060563,4183.03030261,4490.06060561,3498.90909056,4227.33333291,2719.99999973,4356.12121169,2077.09090888,5010.87878738,2909.57575728,4210.84848443,3935.75757536,4429.78787834,8.2424242416,4228.36363594,0.0,4841.39393891,8.2424242416,4493.66666622,2171.87878766,42.0,42.0,?
2017-06-01 16:50:47.056666,4543.63636318,8.2424242416,4224.75757534,8.2424242416,3921.33333294,160.727272711,3924.42424203,115.393939382,4291.7272723,4183.03030261,4477.18181773,3498.90909056,4214.96969655,2719.99999973,4348.39393896,2077.09090888,5004.6969692,2909.57575728,4201.06060564,3935.75757536,4425.15151471,8.2424242416,4227.84848443,0.0,4838.81818133,8.2424242416,4492.12121167,2171.87878766,42.0,42.0,?
2017-06-01 16:50:47.064859,4544.1515147,8.2424242416,4223.21212079,8.2424242416,3920.81818143,160.727272711,3932.66666627,115.393939382,4293.27272684,4183.03030261,4474.60606016,3498.90909056,4212.90909049,2719.99999973,4345.30302987,2077.09090888,4996.45454495,2909.57575728,4211.36363594,3935.75757536,4425.66666622,8.2424242416,4225.78787837,0.0,4841.39393891,8.2424242416,4493.1515147,2171.87878766,42.0,42.0,?
2017-06-01 16:50:47.073375,4542.09090864,8.2424242416,4224.75757534,8.2424242416,3935.75757536,160.727272711,3934.21212082,115.393939382,4310.27272684,4183.03030261,4490.57575713,3498.90909056,4225.27272685,2719.99999973,4354.57575714,2077.09090888,5005.72727223,2909.57575728,4228.36363594,3935.75757536,4428.2424238,8.2424242416,4227.84848443,0.0,4842.42424194,8.2424242416,4498.81818137,2171.87878766,42.0,42.0,?
2017-06-01 16:50:47.080723,4540.54545409,8.2424242416,4224.24242382,8.2424242416,3939.36363597,160.727272711,3919.7878784,115.393939382,4302.54545412,4183.03030261,4484.39393895,3498.90909056,4218.06060564,2719.99999973,4350.96969653,2077.09090888,5009.33333283,2909.57575728,4219.60606018,3935.75757536,4428.2424238,8.2424242416,4229.90909049,0.0,4837.27272679,8.2424242416,4500.36363591,2171.87878766,42.0,42.0,?
2017-06-01 16:50:47.088512,4541.57575712,8.2424242416,4220.63636321,8.2424242416,3934.72727233,160.727272711,3915.66666628,115.393939382,4282.45454503,4183.03030261,4466.87878743,3498.90909056,4204.66666625,2719.99999973,4341.18181775,2077.09090888,5001.09090859,2909.57575728,4208.78787837,3935.75757536,4428.75757531,8.2424242416,4227.84848443,0.0,4837.7878783,8.2424242416,4500.36363591,2171.87878766,42.0,42.0,?
2017-06-01 16:50:47.096229,4541.06060561,8.2424242416,4220.1212117,8.2424242416,3943.48484809,160.727272711,3934.72727233,115.393939382,4295.84848442,4183.03030261,4478.72727228,3498.90909056,4212.90909049,2719.99999973,4349.9393935,2077.09090888,5005.21212071,2909.57575728,4219.60606018,3935.75757536,4427.72727228,8.2424242416,4227.33333291,0.0,4840.87878739,8.2424242416,4500.87878743,2171.87878766,42.0,42.0,?
2017-06-01 16:50:47.103695,4542.09090864,8.2424242416,4222.69696927,8.2424242416,3943.48484809,160.727272711,3936.27272688,115.393939382,4313.36363593,4183.03030261,4491.60606016,3498.90909056,4217.54545412,2719.99999973,4354.06060563,2077.09090888,5012.42424192,2909.57575728,4222.18181776,3935.75757536,4426.18181774,8.2424242416,4227.84848443,0.0,4841.39393891,8.2424242416,4500.36363591,2171.87878766,42.0,42.0,?
2017-06-01 16:50:47.113851,4545.18181773,8.2424242416,4223.7272723,8.2424242416,3928.03030264,160.727272711,3912.57575718,115.393939382,4299.45454502,4183.03030261,4476.1515147,3498.90909056,4206.21212079,2719.99999973,4340.66666623,2077.09090888,5000.57575708,2909.57575728,4207.24242382,3935.75757536,4427.72727228,8.2424242416,4225.78787837,0.0,4843.45454497,8.2424242416,4499.33333288,2171.87878766,42.0,42.0,?
2017-06-01 16:50:47.120163,4544.66666621,8.2424242416,4222.18181776,8.2424242416,3926.48484809,160.727272711,3911.54545415,115.393939382,4285.0303026,4183.03030261,4470.48484804,3498.90909056,4204.15151473,2719.99999973,4339.12121169,2077.09090888,4992.33333283,2909.57575728,4204.66666625,3935.75757536,4427.21212077,8.2424242416,4225.78787837,0.0,4843.45454497,8.2424242416,4496.24242379,2171.87878766,42.0,42.0,?
2017-06-01 16:50:47.127699,4544.1515147,8.2424242416,4223.21212079,8.2424242416,3937.30302991,160.727272711,3931.63636324,115.393939382,4298.42424199,4183.03030261,4486.96969652,3498.90909056,4215.48484806,2719.99999973,4348.39393896,2077.09090888,4999.54545405,2909.57575728,4214.96969655,3935.75757536,4426.69696925,8.2424242416,4230.424242,0.0,4839.33333285,8.2424242416,4497.27272682,2171.87878766,42.0,42.0,?
2017-06-01 16:50:47.135489,4543.12121167,8.2424242416,4224.75757534,8.2424242416,3934.21212082,160.727272711,3931.12121173,115.393939382,4310.78787836,4183.03030261,4490.06060561,3498.90909056,4220.1212117,2719.99999973,4349.42424199,2077.09090888,5001.60606011,2909.57575728,4208.78787837,3935.75757536,4426.18181774,8.2424242416,4230.424242,0.0,4838.30302982,8.2424242416,4496.75757531,2171.87878766,42.0,42.0,?
2017-06-01 16:50:47.143172,4540.54545409,8.2424242416,4221.15151473,8.2424242416,3924.42424203,160.727272711,3924.93939355,115.393939382,4298.93939351,4183.03030261,4480.27272682,3498.90909056,4214.45454503,2719.99999973,4347.87878744,2077.09090888,4999.54545405,2909.57575728,4198.48484806,3935.75757536,4424.12121168,8.2424242416,4226.8181814,0.0,4840.36363588,8.2424242416,4493.1515147,2171.87878766,42.0,42.0,?
2017-06-01 16:50:47.150694,4543.12121167,8.2424242416,4220.63636321,8.2424242416,3919.7878784,160.727272711,3915.15151476,115.393939382,4288.12121169,4183.03030261,4474.60606016,3498.90909056,4205.69696928,2719.99999973,4344.27272684,2077.09090888,4991.81818132,2909.57575728,4203.1212117,3935.75757536,4425.15151471,8.2424242416,4226.8181814,0.0,4842.42424194,8.2424242416,4490.57575713,2171.87878766,42.0,42.0,?
2017-06-01 16:50:47.159890,4545.18181773,8.2424242416,4223.7272723,8.2424242416,3911.54545415,160.727272711,3896.60606022,115.393939382,4290.18181775,4183.03030261,4471.51515107,3498.90909056,4198.99999958,2719.99999973,4334.99999957,2077.09090888,4977.3939389,2909.57575728,4202.60606019,3935.75757536,4426.69696925,8.2424242416,4228.36363594,0.0,4840.36363588,8.2424242416,4487.48484804,2171.87878766,42.0,42.0,?
2017-06-01 16:50:47.166427,4542.60606015,8.2424242416,4223.7272723,8.2424242416,3905.87878749,160.727272711,3894.54545416,115.393939382,4288.12121169,4183.03030261,4469.45454501,3498.90909056,4194.87878746,2719.99999973,4324.69696926,2077.09090888,4970.18181768,2909.57575728,4184.57575716,3935.75757536,4427.21212077,8.2424242416,4227.84848443,0.0,4840.36363588,8.2424242416,4489.5454541,2171.87878766,42.0,42.0,?
2017-06-01 16:50:47.173727,4541.57575712,8.2424242416,4222.18181776,8.2424242416,3914.12121173,160.727272711,3907.93939355,115.393939382,4287.09090866,4183.03030261,4471.51515107,3498.90909056,4196.424242,2719.99999973,4325.21212078,2077.09090888,4978.93939344,2909.57575728,4183.54545413,3935.75757536,4427.21212077,8.2424242416,4225.78787837,0.0,4841.90909042,8.2424242416,4492.12121167,2171.87878766,42.0,42.0,?
2017-06-01 16:50:47.184170,4543.12121167,8.2424242416,4223.7272723,8.2424242416,3922.87878749,160.727272711,3916.18181779,115.393939382,4292.24242381,4183.03030261,4474.60606016,3498.90909056,4205.18181776,2719.99999973,4337.57575714,2077.09090888,4992.33333283,2909.57575728,4203.1212117,3935.75757536,4426.18181774,8.2424242416,4226.8181814,0.0,4840.87878739,8.2424242416,4491.60606016,2171.87878766,42.0,42.0,?
2017-06-01 16:50:47.190642,4545.69696924,8.2424242416,4223.7272723,8.2424242416,3921.33333294,160.727272711,3919.27272688,115.393939382,4289.15151472,4183.03030261,4473.06060561,3498.90909056,4212.90909049,2719.99999973,4345.30302987,2077.09090888,4999.03030253,2909.57575728,4211.87878746,3935.75757536,4427.72727228,8.2424242416,4227.84848443,0.0,4840.87878739,8.2424242416,4494.18181773,2171.87878766,42.0,42.0,?
2017-06-01 16:50:47.199501,4544.1515147,8.2424242416,4221.15151473,8.2424242416,3923.90909052,160.727272711,3925.45454506,115.393939382,4286.57575715,4183.03030261,4473.57575713,3498.90909056,4212.90909049,2719.99999973,4342.21212078,2077.09090888,4995.93939344,2909.57575728,4212.39393897,3935.75757536,4425.15151471,8.2424242416,4227.33333291,0.0,4841.39393891,8.2424242416,4495.72727228,2171.87878766,42.0,42.0,?
2017-06-01 16:50:47.205763,4544.1515147,8.2424242416,4224.75757534,8.2424242416,3934.21212082,160.727272711,3928.54545415,115.393939382,4290.69696927,4183.03030261,4476.1515147,3498.90909056,4210.33333291,2719.99999973,4336.0303026,2077.09090888,4994.39393889,2909.57575728,4212.90909049,3935.75757536,4421.5454541,8.2424242416,4226.8181814,0.0,4841.39393891,8.2424242416,4494.69696925,2171.87878766,42.0,42.0,?
2017-06-01 16:50:47.214404,4542.09090864,8.2424242416,4229.39393897,8.2424242416,3934.21212082,160.727272711,3917.21212082,115.393939382,4283.48484806,4183.03030261,4472.5454541,3498.90909056,4208.78787837,2719.99999973,4333.96969654,2077.09090888,4996.96969647,2909.57575728,4208.27272685,3935.75757536,4426.18181774,8.2424242416,4226.30302988,0.0,4841.39393891,8.2424242416,4495.72727228,2171.87878766,42.0,42.0,?
2017-06-01 16:50:47.222006,4538.48484803,8.2424242416,4224.24242382,8.2424242416,3929.06060567,160.727272711,3907.93939355,115.393939382,4275.24242381,4183.03030261,4469.96969652,3498.90909056,4204.66666625,2719.99999973,4337.06060563,2077.09090888,4987.6969692,2909.57575728,4208.27272685,3935.75757536,4429.27272683,8.2424242416,4227.33333291,0.0,4840.36363588,8.2424242416,4496.75757531,2171.87878766,42.0,42.0,?
2017-06-01 16:50:47.229537,4544.66666621,8.2424242416,4221.66666624,8.2424242416,3933.18181779,160.727272711,3913.0909087,115.393939382,4281.424242,4183.03030261,4472.5454541,3498.90909056,4204.66666625,2719.99999973,4339.12121169,2077.09090888,4985.12121162,2909.57575728,4211.36363594,3935.75757536,4427.21212077,8.2424242416,4228.36363594,0.0,4839.33333285,8.2424242416,4497.78787834,2171.87878766,42.0,42.0,?
2017-06-01 16:50:47.236706,4545.18181773,8.2424242416,4223.7272723,8.2424242416,3933.18181779,160.727272711,3912.06060567,115.393939382,4286.06060563,4183.03030261,4468.93939349,3498.90909056,4210.33333291,2719.99999973,4338.60606017,2077.09090888,5000.06060556,2909.57575728,4208.78787837,3935.75757536,4425.66666622,8.2424242416,4227.84848443,0.0,4840.36363588,8.2424242416,4493.66666622,2171.87878766,42.0,42.0,?
2017-06-01 16:50:47.246387,4541.06060561,8.2424242416,4221.66666624,8.2424242416,3928.54545415,160.727272711,3900.21212082,115.393939382,4281.424242,4183.03030261,4466.36363592,3498.90909056,4212.90909049,2719.99999973,4339.6363632,2077.09090888,5003.66666617,2909.57575728,4207.24242382,3935.75757536,4425.66666622,8.2424242416,4227.33333291,0.0,4841.39393891,8.2424242416,4491.60606016,2171.87878766,42.0,42.0,?
2017-06-01 16:50:47.253000,4542.09090864,8.2424242416,4221.15151473,8.2424242416,3933.18181779,160.727272711,3910.51515112,115.393939382,4279.36363594,4183.03030261,4469.96969652,3498.90909056,4207.75757534,2719.99999973,4340.66666623,2077.09090888,4994.90909041,2909.57575728,4211.36363594,3935.75757536,4424.63636319,8.2424242416,4226.30302988,0.0,4841.39393891,8.2424242416,4496.24242379,2171.87878766,42.0,42.0,?
2017-06-01 16:50:47.261742,4542.60606015,8.2424242416,4222.69696927,8.2424242416,3939.36363597,160.727272711,3929.57575718,115.393939382,4287.09090866,4183.03030261,4472.03030258,3498.90909056,4201.06060564,2719.99999973,4338.09090866,2077.09090888,4996.96969647,2909.57575728,4213.93939352,3935.75757536,4424.63636319,8.2424242416,4224.75757534,0.0,4841.39393891,8.2424242416,4496.24242379,2171.87878766,42.0,42.0,?
2017-06-01 16:50:47.267811,4542.60606015,8.2424242416,4224.75757534,8.2424242416,3937.81818142,160.727272711,3921.84848446,115.393939382,4292.24242381,4183.03030261,4468.93939349,3498.90909056,4200.54545413,2719.99999973,4333.96969654,2077.09090888,4994.39393889,2909.57575728,4214.96969655,3935.75757536,4424.63636319,8.2424242416,4226.30302988,0.0,4841.39393891,8.2424242416,4492.63636319,2171.87878766,42.0,42.0,?
2017-06-01 16:50:47.276306,4541.06060561,8.2424242416,4225.78787837,8.2424242416,3941.93939355,160.727272711,3915.66666628,115.393939382,4289.15151472,4183.03030261,4468.42424198,3498.90909056,4202.60606019,2719.99999973,4338.09090866,2077.09090888,4986.15151465,2909.57575728,4218.57575715,3935.75757536,4424.12121168,8.2424242416,4229.90909049,0.0,4840.36363588,8.2424242416,4495.72727228,2171.87878766,42.0,42.0,?
2017-06-01 16:50:47.284211,4538.48484803,8.2424242416,4224.75757534,8.2424242416,3942.96969658,160.727272711,3913.60606021,115.393939382,4280.39393897,4183.03030261,4464.30302986,3498.90909056,4198.48484806,2719.99999973,4340.15151472,2077.09090888,4988.72727223,2909.57575728,4215.48484806,3935.75757536,4427.72727228,8.2424242416,4229.39393897,0.0,4840.36363588,8.2424242416,4496.75757531,2171.87878766,42.0,42.0,?
2017-06-01 16:50:47.293702,4541.57575712,8.2424242416,4223.21212079,8.2424242416,3929.06060567,160.727272711,3902.27272688,115.393939382,4272.66666624,4183.03030261,4458.12121168,3498.90909056,4190.75757534,2719.99999973,4331.39393896,2077.09090888,4994.39393889,2909.57575728,4208.27272685,3935.75757536,4430.81818138,8.2424242416,4226.30302988,0.0,4841.90909042,8.2424242416,4491.09090864,2171.87878766,42.0,42.0,?
2017-06-01 16:50:47.298834,4543.12121167,8.2424242416,4223.21212079,8.2424242416,3932.66666627,160.727272711,3912.57575718,115.393939382,4283.48484806,4183.03030261,4469.96969652,3498.90909056,4198.99999958,2719.99999973,4336.54545411,2077.09090888,5001.09090859,2909.57575728,4218.57575715,3935.75757536,4427.72727228,8.2424242416,4227.84848443,0.0,4840.36363588,8.2424242416,4491.60606016,2171.87878766,42.0,42.0,?
2017-06-01 16:50:47.306820,4542.09090864,8.2424242416,4225.27272685,8.2424242416,3948.12121173,160.727272711,3924.93939355,115.393939382,4297.39393896,4183.03030261,4484.39393895,3498.90909056,4211.36363594,2719.99999973,4348.90909047,2077.09090888,5009.84848435,2909.57575728,4231.45454503,3935.75757536,4426.69696925,8.2424242416,4230.424242,0.0,4840.36363588,8.2424242416,4498.81818137,2171.87878766,42.0,42.0,?
2017-06-01 16:50:47.315551,4543.12121167,8.2424242416,4223.21212079,8.2424242416,3937.30302991,160.727272711,3907.42424203,115.393939382,4293.27272684,4183.03030261,4476.1515147,3498.90909056,4203.1212117,2719.99999973,4343.24242381,2077.09090888,5004.18181768,2909.57575728,4222.18181776,3935.75757536,4426.69696925,8.2424242416,4228.87878746,0.0,4842.42424194,8.2424242416,4496.24242379,2171.87878766,42.0,42.0,?
2017-06-01 16:50:47.323666,4543.63636318,8.2424242416,4221.15151473,8.2424242416,3920.81818143,160.727272711,3900.21212082,115.393939382,4290.18181775,4183.03030261,4469.96969652,3498.90909056,4196.93939352,2719.99999973,4337.06060563,2077.09090888,4992.33333283,2909.57575728,4212.39393897,3935.75757536,4425.66666622,8.2424242416,4226.8181814,0.0,4842.93939346,8.2424242416,4492.63636319,2171.87878766,42.0,42.0,?
2017-06-01 16:50:47.330870,4544.1515147,8.2424242416,4224.24242382,8.2424242416,3924.42424203,160.727272711,3910.51515112,115.393939382,4290.69696927,4183.03030261,4474.60606016,3498.90909056,4206.21212079,2719.99999973,4341.69696926,2077.09090888,4989.24242374,2909.57575728,4210.84848443,3935.75757536,4425.66666622,8.2424242416,4228.36363594,0.0,4842.42424194,8.2424242416,4493.66666622,2171.87878766,42.0,42.0,?
2017-06-01 16:50:47.339323,4542.60606015,8.2424242416,4223.21212079,8.2424242416,3930.60606021,160.727272711,3907.93939355,115.393939382,4284.51515109,4183.03030261,4469.45454501,3498.90909056,4203.1212117,2719.99999973,4339.12121169,2077.09090888,4991.81818132,2909.57575728,4206.72727231,3935.75757536,4426.18181774,8.2424242416,4227.33333291,0.0,4839.84848436,8.2424242416,4492.12121167,2171.87878766,42.0,42.0,?
2017-06-01 16:50:47.345962,4541.57575712,8.2424242416,4222.18181776,8.2424242416,3931.63636324,160.727272711,3909.48484809,115.393939382,4282.45454503,4183.03030261,4463.27272683,3498.90909056,4190.75757534,2719.99999973,4336.54545411,2077.09090888,5000.06060556,2909.57575728,4208.78787837,3935.75757536,4426.69696925,8.2424242416,4227.84848443,0.0,4840.36363588,8.2424242416,4495.72727228,2171.87878766,42.0,42.0,?
2017-06-01 16:50:47.353849,4541.57575712,8.2424242416,4225.27272685,8.2424242416,3937.30302991,160.727272711,3924.93939355,115.393939382,4290.18181775,4183.03030261,4472.5454541,3498.90909056,4199.5151511,2719.99999973,4345.81818138,2077.09090888,5006.75757526,2909.57575728,4211.87878746,3935.75757536,4426.18181774,8.2424242416,4230.424242,0.0,4842.93939346,8.2424242416,4500.87878743,2171.87878766,42.0,42.0,?
2017-06-01 16:50:47.362893,4540.03030258,8.2424242416,4225.78787837,8.2424242416,3935.24242385,160.727272711,3914.63636324,115.393939382,4290.18181775,4183.03030261,4474.60606016,3498.90909056,4205.69696928,2719.99999973,4344.27272684,2077.09090888,4996.96969647,2909.57575728,4198.99999958,3935.75757536,4427.72727228,8.2424242416,4228.36363594,0.0,4840.87878739,8.2424242416,4498.30302985,2171.87878766,42.0,42.0,?
2017-06-01 16:50:47.371505,4540.03030258,8.2424242416,4223.21212079,8.2424242416,3924.93939355,160.727272711,3897.12121173,115.393939382,4278.33333291,4183.03030261,4461.72727228,3498.90909056,4189.72727231,2719.99999973,4332.42424199,2077.09090888,4984.60606011,2909.57575728,4185.09090867,3935.75757536,4429.27272683,8.2424242416,4227.33333291,0.0,4840.36363588,8.2424242416,4497.78787834,2171.87878766,42.0,42.0,?
2017-06-01 16:50:47.380068,4540.03030258,8.2424242416,4221.66666624,8.2424242416,3925.96969658,160.727272711,3911.03030264,115.393939382,4273.69696927,4183.03030261,4459.66666622,3498.90909056,4188.18181776,2719.99999973,4334.48484805,2077.09090888,4990.27272677,2909.57575728,4184.57575716,3935.75757536,4426.69696925,8.2424242416,4229.90909049,0.0,4841.39393891,8.2424242416,4500.36363591,2171.87878766,42.0,42.0,?
2017-06-01 16:50:47.386636,4541.06060561,8.2424242416,4223.21212079,8.2424242416,3930.60606021,160.727272711,3923.393939,115.393939382,4281.93939351,4183.03030261,4466.87878743,3498.90909056,4200.54545413,2719.99999973,4342.21212078,2077.09090888,4999.54545405,2909.57575728,4182.5151511,3935.75757536,4426.69696925,8.2424242416,4229.39393897,0.0,4841.90909042,8.2424242416,4500.87878743,2171.87878766,42.0,42.0,?
2017-06-01 16:50:47.394755,4543.12121167,8.2424242416,4224.24242382,8.2424242416,3934.21212082,160.727272711,3917.21212082,115.393939382,4290.69696927,4183.03030261,4472.03030258,3498.90909056,4200.03030261,2719.99999973,4342.72727229,2077.09090888,4997.9999995,2909.57575728,4178.90909049,3935.75757536,4427.21212077,8.2424242416,4225.78787837,0.0,4842.42424194,8.2424242416,4500.36363591,2171.87878766,42.0,42.0,?
2017-06-01 16:50:47.401328,4543.12121167,8.2424242416,4220.63636321,8.2424242416,3939.87878748,160.727272711,3920.30302991,115.393939382,4295.84848442,4183.03030261,4476.1515147,3498.90909056,4200.54545413,2719.99999973,4344.27272684,2077.09090888,5006.75757526,2909.57575728,4185.60606019,3935.75757536,4423.60606016,8.2424242416,4225.78787837,0.0,4842.93939346,8.2424242416,4503.96969652,2171.87878766,42.0,42.0,?
2017-06-01 16:50:47.409606,4547.24242379,8.2424242416,4220.63636321,8.2424242416,3941.42424203,160.727272711,3921.84848446,115.393939382,4300.48484805,4183.03030261,4476.66666622,3498.90909056,4206.72727231,2719.99999973,4344.78787835,2077.09090888,5018.09090859,2909.57575728,4191.78787837,3935.75757536,4423.09090865,8.2424242416,4228.87878746,0.0,4842.42424194,8.2424242416,4507.57575713,2171.87878766,42.0,42.0,?
2017-06-01 16:50:47.418380,4546.21212076,8.2424242416,4223.7272723,8.2424242416,3938.33333294,160.727272711,3916.69696931,115.393939382,4302.0303026,4183.03030261,4478.21212076,3498.90909056,4208.27272685,2719.99999973,4343.75757532,2077.09090888,5012.93939344,2909.57575728,4190.75757534,3935.75757536,4425.15151471,8.2424242416,4230.424242,0.0,4841.39393891,8.2424242416,4504.99999955,2171.87878766,42.0,42.0,?
2017-06-01 16:50:47.423961,4542.60606015,8.2424242416,4223.21212079,8.2424242416,3935.75757536,160.727272711,3924.93939355,115.393939382,4293.78787836,4183.03030261,4476.66666622,3498.90909056,4203.1212117,2719.99999973,4345.81818138,2077.09090888,5002.63636314,2909.57575728,4182.5151511,3935.75757536,4426.18181774,8.2424242416,4229.39393897,0.0,4841.39393891,8.2424242416,4503.96969652,2171.87878766,42.0,42.0,?
2017-06-01 16:50:47.431973,4541.57575712,12.3636363624,4222.69696927,8.2424242416,3932.66666627,160.727272711,3930.0909087,115.393939382,4289.66666624,4183.03030261,4475.12121167,3498.90909056,4205.69696928,2719.99999973,4349.9393935,2077.09090888,5008.3030298,2909.57575728,4178.90909049,3935.75757536,4425.66666622,8.2424242416,4227.33333291,0.0,4841.39393891,8.2424242416,4503.96969652,2171.87878766,42.0,42.0,?
2017-06-01 16:50:47.440532,4540.54545409,12.3636363624,4224.24242382,12.3636363624,3934.72727233,160.727272711,3921.33333294,115.393939382,4297.90909048,4183.03030261,4481.30302985,3498.90909056,4214.45454503,2719.99999973,4357.15151472,2077.09090888,5019.63636313,2909.57575728,4189.21212079,3935.75757536,4424.63636319,8.2424242416,4225.78787837,0.0,4841.90909042,8.2424242416,4502.93939349,2171.87878766,42.0,42.0,?
2017-06-01 16:50:47.449028,4541.57575712,12.3636363624,4226.30302988,12.3636363624,3939.36363597,160.727272711,3928.54545415,115.393939382,4303.06060563,4183.03030261,4485.93939349,3498.90909056,4216.51515109,2719.99999973,4359.72727229,2077.09090888,5017.57575707,2909.57575728,4196.424242,3935.75757536,4427.21212077,8.2424242416,4227.33333291,0.0,4841.90909042,8.2424242416,4506.54545409,2159.5151513,42.0,42.0,?
2017-06-01 16:50:47.457470,4542.09090864,12.3636363624,4223.21212079,12.3636363624,3938.33333294,152.48484847,3936.78787839,115.393939382,4295.84848442,4183.03030261,4478.21212076,3498.90909056,4211.87878746,2719.99999973,4352.51515108,2077.09090888,5011.39393889,2909.57575728,4189.72727231,3935.75757536,4427.21212077,8.2424242416,4230.424242,0.0,4838.81818133,8.2424242416,4504.99999955,2159.5151513,42.0,42.0,?
2017-06-01 16:50:47.464505,4540.54545409,12.3636363624,4220.63636321,12.3636363624,3935.75757536,152.48484847,3913.0909087,123.636363624,4288.63636321,4183.03030261,4472.5454541,3498.90909056,4208.27272685,2719.99999973,4349.9393935,2077.09090888,5014.9999995,2909.57575728,4187.66666625,3935.75757536,4423.60606016,8.2424242416,4229.39393897,0.0,4839.84848436,8.2424242416,4500.87878743,2159.5151513,42.0,42.0,?
2017-06-01 16:50:47.474626,4541.06060561,12.3636363624,4222.18181776,12.3636363624,3937.30302991,152.48484847,3903.81818143,123.636363624,4294.30302987,4170.66666625,4477.69696925,3498.90909056,4211.87878746,2719.99999973,4355.60606017,2077.09090888,5019.63636313,2909.57575728,4196.93939352,3935.75757536,4423.60606016,8.2424242416,4225.78787837,0.0,4841.90909042,8.2424242416,4503.96969652,2159.5151513,42.0,42.0,?
2017-06-01 16:50:47.479244,4542.60606015,12.3636363624,4221.66666624,12.3636363624,3933.6969693,152.48484847,3929.06060567,123.636363624,4298.93939351,4170.66666625,4478.21212076,3498.90909056,4212.39393897,2719.99999973,4355.60606017,2077.09090888,5012.93939344,2909.57575728,4196.424242,3935.75757536,4428.2424238,8.2424242416,4226.8181814,0.0,4839.33333285,8.2424242416,4503.96969652,2159.5151513,42.0,42.0,?
2017-06-01 16:50:47.487105,4546.72727227,12.3636363624,4222.18181776,12.3636363624,3923.393939,152.48484847,3929.06060567,123.636363624,4290.18181775,4170.66666625,4469.96969652,3498.90909056,4204.15151473,2724.12121185,4346.84848441,2077.09090888,5002.12121162,2909.57575728,4181.99999958,3935.75757536,4431.33333289,8.2424242416,4229.39393897,0.0,4839.33333285,8.2424242416,4500.36363591,2159.5151513,42.0,42.0,?
2017-06-01 16:50:47.496179,4545.18181773,12.3636363624,4224.24242382,12.3636363624,3921.84848446,152.48484847,3900.72727234,123.636363624,4281.424242,4170.66666625,4466.87878743,3498.90909056,4201.06060564,2724.12121185,4342.21212078,2089.45454525,5001.09090859,2909.57575728,4178.39393898,3935.75757536,4427.72727228,8.2424242416,4228.87878746,0.0,4839.33333285,8.2424242416,4500.36363591,2159.5151513,42.0,42.0,?
2017-06-01 16:50:47.503114,4541.06060561,12.3636363624,4223.21212079,12.3636363624,3929.57575718,152.48484847,3902.27272688,123.636363624,4285.0303026,4170.66666625,4475.12121167,3498.90909056,4210.84848443,2724.12121185,4346.3333329,2089.45454525,5005.21212071,2913.69696941,4188.18181776,3935.75757536,4422.57575713,8.2424242416,4226.8181814,0.0,4837.27272679,8.2424242416,4503.454545,2159.5151513,42.0,42.0,?
2017-06-01 16:50:47.512505,4540.03030258,12.3636363624,4220.63636321,12.3636363624,3925.96969658,152.48484847,3915.66666628,123.636363624,4290.18181775,4170.66666625,4480.27272682,3498.90909056,4208.78787837,2724.12121185,4347.36363593,2089.45454525,5002.63636314,2913.69696941,4184.57575716,3927.51515112,4426.18181774,8.2424242416,4225.27272685,0.0,4839.33333285,8.2424242416,4504.99999955,2159.5151513,42.0,42.0,?
2017-06-01 16:50:47.518819,4540.03030258,12.3636363624,4220.63636321,12.3636363624,3914.63636324,152.48484847,3905.36363597,123.636363624,4286.57575715,4170.66666625,4475.63636319,3498.90909056,4195.39393897,2724.12121185,4340.66666623,2089.45454525,5001.09090859,2913.69696941,4169.1212117,3927.51515112,4429.78787834,0.0,4227.84848443,0.0,4840.87878739,8.2424242416,4501.39393894,2159.5151513,42.0,42.0,?
2017-06-01 16:50:47.525950,4542.09090864,12.3636363624,4224.24242382,12.3636363624,3920.81818143,152.48484847,3903.30302991,123.636363624,4290.69696927,4170.66666625,4480.27272682,3498.90909056,4202.60606019,2724.12121185,4343.75757532,2089.45454525,5003.15151465,2913.69696941,4170.15151473,3927.51515112,4427.21212077,0.0,4229.90909049,4.1212121208,4840.87878739,8.2424242416,4501.90909046,2159.5151513,42.0,42.0,?
2017-06-01 16:50:47.534579,4544.1515147,12.3636363624,4224.75757534,12.3636363624,3932.66666627,152.48484847,3920.81818143,123.636363624,4307.69696927,4170.66666625,4494.18181773,3498.90909056,4217.03030261,2724.12121185,4355.09090866,2089.45454525,5004.6969692,2913.69696941,4183.03030261,3927.51515112,4425.66666622,0.0,4227.84848443,4.1212121208,4840.36363588,0.0,4507.06060561,2159.5151513,42.0,42.0,?
2017-06-01 16:50:47.541852,4542.60606015,12.3636363624,4223.21212079,12.3636363624,3928.03030264,152.48484847,3929.06060567,123.636363624,4311.30302987,4170.66666625,4494.69696925,3498.90909056,4214.96969655,2724.12121185,4358.18181775,2089.45454525,5010.36363586,2913.69696941,4186.63636322,3927.51515112,4427.72727228,0.0,4225.27272685,4.1212121208,4837.7878783,0.0,4506.03030258,2159.5151513,42.0,42.0,?
2017-06-01 16:50:47.551586,4544.1515147,12.3636363624,4224.24242382,12.3636363624,3917.72727234,152.48484847,3916.18181779,123.636363624,4293.78787836,4170.66666625,4480.78787834,3498.90909056,4207.75757534,2724.12121185,4352.51515108,2089.45454525,5011.39393889,2913.69696941,4175.30302989,3927.51515112,4428.2424238,8.2424242416,4226.30302988,4.1212121208,4840.36363588,0.0,4500.87878743,2159.5151513,42.0,42.0,?
2017-06-01 16:50:47.557839,4545.69696924,12.3636363624,4223.7272723,12.3636363624,3920.30302991,152.48484847,3904.84848446,123.636363624,4280.39393897,4170.66666625,4469.96969652,3498.90909056,4205.69696928,2724.12121185,4345.81818138,2089.45454525,5003.15151465,2913.69696941,4167.06060564,3927.51515112,4426.18181774,8.2424242416,4228.87878746,4.1212121208,4843.45454497,0.0,4500.36363591,2159.5151513,42.0,42.0,?
2017-06-01 16:50:47.566582,4542.60606015,12.3636363624,4221.66666624,12.3636363624,3929.06060567,152.48484847,3907.42424203,123.636363624,4282.45454503,4170.66666625,4472.5454541,3498.90909056,4210.33333291,2724.12121185,4348.39393896,2089.45454525,5004.6969692,2913.69696941,4175.30302989,3927.51515112,4426.18181774,8.2424242416,4228.87878746,4.1212121208,4842.42424194,0.0,4506.03030258,2159.5151513,42.0,42.0,?
2017-06-01 16:50:47.573211,4541.57575712,12.3636363624,4223.7272723,12.3636363624,3927.51515112,152.48484847,3911.54545415,123.636363624,4288.63636321,4170.66666625,4479.75757531,3498.90909056,4215.48484806,2724.12121185,4354.57575714,2089.45454525,5013.96969647,2913.69696941,4182.5151511,3927.51515112,4425.15151471,8.2424242416,4226.8181814,4.1212121208,4842.42424194,0.0,4506.54545409,2159.5151513,42.0,42.0,?
2017-06-01 16:50:47.580984,4542.60606015,12.3636363624,4224.75757534,12.3636363624,3923.393939,152.48484847,3914.63636324,123.636363624,4290.69696927,4170.66666625,4478.72727228,3498.90909056,4210.84848443,2724.12121185,4350.96969653,2089.45454525,5005.72727223,2913.69696941,4173.24242383,3927.51515112,4426.18181774,8.2424242416,4225.78787837,4.1212121208,4841.39393891,0.0,4502.42424197,2159.5151513,42.0,42.0,?
2017-06-01 16:50:47.590597,4544.1515147,12.3636363624,4224.24242382,12.3636363624,3929.57575718,152.48484847,3915.15151476,123.636363624,4295.3333329,4170.66666625,4480.27272682,3498.90909056,4208.78787837,2724.12121185,4346.84848441,2089.45454525,4997.48484799,2913.69696941,4170.15151473,3927.51515112,4430.30302986,8.2424242416,4227.84848443,4.1212121208,4841.90909042,0.0,4503.96969652,2159.5151513,42.0,42.0,?
2017-06-01 16:50:47.597753,4543.12121167,12.3636363624,4224.24242382,12.3636363624,3934.21212082,152.48484847,3915.15151476,123.636363624,4302.0303026,4170.66666625,4489.03030258,3498.90909056,4214.96969655,2724.12121185,4354.57575714,2089.45454525,5010.87878738,2913.69696941,4179.93939352,3927.51515112,4428.2424238,8.2424242416,4229.90909049,4.1212121208,4842.42424194,0.0,4506.03030258,2159.5151513,42.0,42.0,?
2017-06-01 16:50:47.605052,4542.09090864,12.3636363624,4223.21212079,12.3636363624,3920.30302991,152.48484847,3919.27272688,123.636363624,4297.39393896,4170.66666625,4486.96969652,3498.90909056,4214.45454503,2724.12121185,4356.6363632,2089.45454525,5014.9999995,2913.69696941,4176.84848443,3927.51515112,4425.66666622,8.2424242416,4228.87878746,4.1212121208,4842.42424194,0.0,4501.39393894,2159.5151513,42.0,42.0,?
2017-06-01 16:50:47.612461,4544.66666621,12.3636363624,4222.69696927,12.3636363624,3910.51515112,152.48484847,3917.72727234,123.636363624,4285.0303026,4170.66666625,4474.60606016,3498.90909056,4209.8181814,2724.12121185,4348.90909047,2089.45454525,4998.51515102,2913.69696941,4163.96969655,3927.51515112,4426.69696925,8.2424242416,4226.8181814,4.1212121208,4841.39393891,0.0,4499.8484844,2159.5151513,42.0,42.0,?
2017-06-01 16:50:47.621989,4543.63636318,12.3636363624,4223.21212079,12.3636363624,3919.27272688,152.48484847,3913.60606021,123.636363624,4281.424242,4170.66666625,4472.03030258,3498.90909056,4211.36363594,2724.12121185,4350.96969653,2089.45454525,4999.03030253,2913.69696941,4165.5151511,3927.51515112,4425.66666622,8.2424242416,4226.8181814,4.1212121208,4841.39393891,0.0,4500.87878743,2159.5151513,42.0,42.0,?
2017-06-01 16:50:47.628590,4544.66666621,12.3636363624,4224.75757534,12.3636363624,3921.84848446,152.48484847,3911.54545415,123.636363624,4285.54545412,4170.66666625,4476.1515147,3498.90909056,4211.87878746,2724.12121185,4354.06060563,2089.45454525,5014.48484798,2913.69696941,4171.18181776,3927.51515112,4425.66666622,8.2424242416,4227.84848443,4.1212121208,4842.42424194,0.0,4500.87878743,2159.5151513,42.0,42.0,?
2017-06-01 16:50:47.636056,4542.09090864,12.3636363624,4224.75757534,12.3636363624,3913.60606021,152.48484847,3905.36363597,123.636363624,4289.15151472,4170.66666625,4476.66666622,3498.90909056,4211.87878746,2724.12121185,4353.54545411,2089.45454525,5016.03030253,2913.69696941,4167.57575716,3927.51515112,4426.18181774,8.2424242416,4228.36363594,4.1212121208,4841.39393891,0.0,4499.8484844,2159.5151513,42.0,42.0,?
2017-06-01 16:50:47.645969,4538.99999955,12.3636363624,4223.21212079,12.3636363624,3911.54545415,152.48484847,3897.63636325,123.636363624,4288.12121169,4170.66666625,4478.21212076,3498.90909056,4218.57575715,2724.12121185,4356.12121169,2089.45454525,5010.87878738,2913.69696941,4161.39393898,3927.51515112,4426.18181774,8.2424242416,4227.33333291,4.1212121208,4840.36363588,0.0,4500.87878743,2159.5151513,42.0,42.0,?
2017-06-01 16:50:47.650993,4542.60606015,12.3636363624,4223.21212079,12.3636363624,3918.24242385,152.48484847,3903.30302991,123.636363624,4283.99999957,4170.66666625,4479.24242379,3498.90909056,4223.7272723,2724.12121185,4358.18181775,2089.45454525,5013.96969647,2913.69696941,4162.42424201,3927.51515112,4426.18181774,8.2424242416,4226.30302988,4.1212121208,4840.36363588,0.0,4501.90909046,2159.5151513,42.0,42.0,?
2017-06-01 16:50:47.658977,4541.57575712,12.3636363624,4224.75757534,12.3636363624,3927.51515112,152.48484847,3920.81818143,123.636363624,4289.15151472,4170.66666625,4484.90909046,3498.90909056,4225.27272685,2724.12121185,4359.72727229,2089.45454525,5016.54545404,2913.69696941,4171.69696928,3927.51515112,4424.63636319,8.2424242416,4226.8181814,4.1212121208,4839.33333285,0.0,4502.93939349,2159.5151513,42.0,42.0,?
2017-06-01 16:50:47.667621,4541.06060561,12.3636363624,4226.30302988,12.3636363624,3924.42424203,152.48484847,3914.63636324,123.636363624,4294.81818139,4170.66666625,4487.99999955,3498.90909056,4225.27272685,2724.12121185,4360.75757532,2089.45454525,5007.78787829,2913.69696941,4173.24242383,3927.51515112,4425.66666622,8.2424242416,4227.84848443,4.1212121208,4838.81818133,0.0,4503.454545,2159.5151513,42.0,42.0,?
2017-06-01 16:50:47.675197,4542.09090864,12.3636363624,4222.69696927,12.3636363624,3908.45454506,152.48484847,3892.4848481,123.636363624,4288.63636321,4170.66666625,4480.27272682,3498.90909056,4218.06060564,2724.12121185,4354.06060563,2089.45454525,4995.42424192,2913.69696941,4157.27272686,3927.51515112,4427.21212077,8.2424242416,4226.30302988,4.1212121208,4840.36363588,0.0,4500.36363591,2159.5151513,42.0,42.0,?
2017-06-01 16:50:47.685190,4542.09090864,12.3636363624,4219.09090867,12.3636363624,3907.93939355,152.48484847,3898.66666628,123.636363624,4286.06060563,4170.66666625,4479.24242379,3498.90909056,4217.03030261,2724.12121185,4346.84848441,2089.45454525,5003.66666617,2913.69696941,4155.2121208,3927.51515112,4424.63636319,8.2424242416,4226.8181814,4.1212121208,4841.39393891,0.0,4497.78787834,2159.5151513,42.0,42.0,?
2017-06-01 16:50:47.691200,4542.09090864,12.3636363624,4223.21212079,12.3636363624,3922.87878749,152.48484847,3925.45454506,123.636363624,4295.3333329,4170.66666625,4489.5454541,3498.90909056,4223.7272723,2724.12121185,4349.9393935,2089.45454525,5021.18181768,2913.69696941,4170.66666625,3927.51515112,4424.63636319,8.2424242416,4228.87878746,4.1212121208,4841.39393891,0.0,4501.90909046,2159.5151513,42.0,42.0,?
2017-06-01 16:50:47.699370,4540.54545409,12.3636363624,4224.75757534,12.3636363624,3924.42424203,152.48484847,3926.99999961,123.636363624,4298.93939351,4170.66666625,4492.12121167,3498.90909056,4224.24242382,2724.12121185,4356.6363632,2089.45454525,5019.12121162,2913.69696941,4174.27272686,3927.51515112,4427.21212077,8.2424242416,4224.75757534,4.1212121208,4841.90909042,0.0,4501.90909046,2159.5151513,42.0,42.0,?
2017-06-01 16:50:47.707023,4542.09090864,12.3636363624,4223.7272723,12.3636363624,3916.18181779,152.48484847,3915.66666628,123.636363624,4291.7272723,4170.66666625,4484.90909046,3498.90909056,4214.96969655,2724.12121185,4353.54545411,2089.45454525,5005.72727223,2913.69696941,4165.5151511,3927.51515112,4430.30302986,8.2424242416,4224.75757534,4.1212121208,4841.90909042,0.0,4500.87878743,2159.5151513,42.0,42.0,?
2017-06-01 16:50:47.716543,4543.12121167,12.3636363624,4222.18181776,12.3636363624,3920.81818143,152.48484847,3915.15151476,123.636363624,4285.54545412,4170.66666625,4485.42424198,3498.90909056,4211.87878746,2724.12121185,4345.81818138,2089.45454525,5006.75757526,2913.69696941,4169.63636322,3927.51515112,4428.2424238,8.2424242416,4230.93939352,4.1212121208,4840.36363588,0.0,4504.48484803,2159.5151513,42.0,42.0,?
2017-06-01 16:50:47.722472,4540.54545409,12.3636363624,4220.63636321,12.3636363624,3929.57575718,152.48484847,3906.393939,123.636363624,4290.69696927,4170.66666625,4489.5454541,3498.90909056,4217.03030261,2724.12121185,4345.81818138,2089.45454525,5005.72727223,2913.69696941,4176.33333292,3927.51515112,4424.12121168,8.2424242416,4230.424242,4.1212121208,4840.87878739,0.0,4503.96969652,2159.5151513,42.0,42.0,?
2017-06-01 16:50:47.730424,4541.57575712,12.3636363624,4224.75757534,12.3636363624,3924.42424203,152.48484847,3899.18181779,123.636363624,4290.18181775,4170.66666625,4477.18181773,3498.90909056,4209.30302988,2724.12121185,4342.21212078,2089.45454525,4991.81818132,2913.69696941,4164.48484807,3927.51515112,4425.15151471,8.2424242416,4224.24242382,4.1212121208,4842.42424194,0.0,4498.81818137,2159.5151513,42.0,42.0,?
2017-06-01 16:50:47.737948,4542.09090864,12.3636363624,4227.33333291,12.3636363624,3918.24242385,152.48484847,3904.84848446,123.636363624,4279.87878745,4170.66666625,4463.78787834,3498.90909056,4200.03030261,2724.12121185,4338.09090866,2089.45454525,4991.3030298,2913.69696941,4157.27272686,3927.51515112,4428.2424238,8.2424242416,4227.84848443,4.1212121208,4840.87878739,0.0,4495.21212076,2159.5151513,42.0,42.0,?
2017-06-01 16:50:47.745647,4541.06060561,12.3636363624,4224.24242382,12.3636363624,3922.36363597,152.48484847,3910.51515112,123.636363624,4282.96969654,4170.66666625,4467.90909046,3498.90909056,4206.21212079,2724.12121185,4344.78787835,2089.45454525,5006.75757526,2913.69696941,4168.09090867,3927.51515112,4428.2424238,8.2424242416,4231.45454503,4.1212121208,4841.39393891,0.0,4500.36363591,2159.5151513,42.0,42.0,?
2017-06-01 16:50:47.753035,4543.12121167,12.3636363624,4222.18181776,12.3636363624,3922.36363597,152.48484847,3911.54545415,123.636363624,4291.21212078,4170.66666625,4468.42424198,3498.90909056,4209.30302988,2724.12121185,4344.27272684,2089.45454525,5004.6969692,2913.69696941,4168.09090867,3927.51515112,4425.66666622,8.2424242416,4224.75757534,4.1212121208,4841.39393891,0.0,4502.93939349,2159.5151513,42.0,42.0,?
2017-06-01 16:50:47.763742,4544.1515147,12.3636363624,4222.18181776,12.3636363624,3920.81818143,152.48484847,3918.24242385,123.636363624,4291.7272723,4170.66666625,4464.81818137,3498.90909056,4202.60606019,2724.12121185,4340.15151472,2089.45454525,5001.60606011,2913.69696941,4157.78787837,3927.51515112,4425.66666622,8.2424242416,4222.69696927,4.1212121208,4839.33333285,0.0,4497.27272682,2159.5151513,42.0,42.0,?
2017-06-01 16:50:47.769900,4543.63636318,12.3636363624,4223.21212079,12.3636363624,3931.63636324,152.48484847,3927.51515112,123.636363624,4295.3333329,4170.66666625,4479.24242379,3498.90909056,4210.84848443,2724.12121185,4353.03030259,2089.45454525,5015.51515101,2913.69696941,4163.96969655,3927.51515112,4429.27272683,8.2424242416,4229.90909049,4.1212121208,4841.39393891,0.0,4499.8484844,2159.5151513,42.0,42.0,?
2017-06-01 16:50:47.776490,4544.66666621,12.3636363624,4223.21212079,12.3636363624,3934.21212082,152.48484847,3923.90909052,123.636363624,4293.27272684,4170.66666625,4486.45454501,3498.90909056,4221.66666624,2724.12121185,4362.81818138,2089.45454525,5017.06060556,2913.69696941,4179.93939352,3927.51515112,4426.18181774,8.2424242416,4230.93939352,4.1212121208,4840.87878739,0.0,4501.39393894,2159.5151513,42.0,42.0,?
2017-06-01 16:50:47.786213,4545.18181773,12.3636363624,4222.69696927,12.3636363624,3922.36363597,152.48484847,3912.57575718,123.636363624,4283.48484806,4170.66666625,4473.06060561,3498.90909056,4214.45454503,2724.12121185,4354.06060563,2089.45454525,5009.84848435,2913.69696941,4183.54545413,3927.51515112,4422.57575713,8.2424242416,4225.78787837,4.1212121208,4838.30302982,0.0,4498.30302985,2159.5151513,42.0,42.0,?
2017-06-01 16:50:47.792859,4543.63636318,12.3636363624,4224.75757534,12.3636363624,3928.54545415,152.48484847,3916.18181779,123.636363624,4288.63636321,4170.66666625,4471.51515107,3498.90909056,4212.90909049,2724.12121185,4347.87878744,2089.45454525,5013.96969647,2913.69696941,4180.96969655,3927.51515112,4426.69696925,8.2424242416,4225.78787837,4.1212121208,4841.90909042,0.0,4499.33333288,2159.5151513,42.0,42.0,?
2017-06-01 16:50:47.801819,4541.06060561,12.3636363624,4223.7272723,12.3636363624,3942.96969658,152.48484847,3926.48484809,123.636363624,4295.3333329,4170.66666625,4476.1515147,3498.90909056,4214.96969655,2724.12121185,4345.81818138,2089.45454525,5008.81818132,2913.69696941,4176.84848443,3927.51515112,4429.27272683,8.2424242416,4228.36363594,4.1212121208,4842.42424194,0.0,4499.8484844,2159.5151513,42.0,42.0,?
2017-06-01 16:50:47.808261,4545.69696924,12.3636363624,4221.66666624,12.3636363624,3936.78787839,152.48484847,3917.21212082,123.636363624,4286.57575715,4170.66666625,4469.45454501,3498.90909056,4204.15151473,2724.12121185,4340.15151472,2089.45454525,4999.03030253,2913.69696941,4175.8181814,3927.51515112,4427.21212077,8.2424242416,4230.93939352,4.1212121208,4840.36363588,0.0,4500.36363591,2159.5151513,42.0,42.0,?
2017-06-01 16:50:47.817371,4547.7575753,12.3636363624,4224.75757534,12.3636363624,3931.63636324,152.48484847,3913.0909087,123.636363624,4287.09090866,4170.66666625,4469.96969652,3498.90909056,4202.09090867,2724.12121185,4344.27272684,2089.45454525,5005.72727223,2913.69696941,4180.45454504,3927.51515112,4425.66666622,8.2424242416,4230.424242,4.1212121208,4844.484848,0.0,4500.36363591,2159.5151513,42.0,42.0,?
2017-06-01 16:50:47.824101,4544.1515147,12.3636363624,4226.8181814,12.3636363624,3939.87878748,152.48484847,3930.60606021,123.636363624,4294.30302987,4170.66666625,4477.18181773,3498.90909056,4209.8181814,2724.12121185,4350.96969653,2089.45454525,5006.75757526,2913.69696941,4180.45454504,3927.51515112,4425.66666622,8.2424242416,4226.8181814,4.1212121208,4846.03030255,0.0,4498.81818137,2159.5151513,42.0,42.0,?
2017-06-01 16:50:47.832708,4544.66666621,12.3636363624,4223.7272723,12.3636363624,3944.51515112,152.48484847,3937.81818142,123.636363624,4292.75757533,4170.66666625,4476.1515147,3498.90909056,4215.48484806,2724.12121185,4350.45454502,2089.45454525,5004.6969692,2913.69696941,4183.03030261,3927.51515112,4425.15151471,8.2424242416,4227.84848443,4.1212121208,4841.39393891,0.0,4499.33333288,2159.5151513,42.0,42.0,?
2017-06-01 16:50:47.839218,4542.60606015,12.3636363624,4222.69696927,12.3636363624,3941.42424203,152.48484847,3927.51515112,123.636363624,4291.7272723,4170.66666625,4473.57575713,3498.90909056,4213.93939352,2724.12121185,4351.48484805,2089.45454525,5016.54545404,2913.69696941,4188.69696928,3927.51515112,4425.15151471,8.2424242416,4228.87878746,4.1212121208,4838.81818133,0.0,4497.78787834,2159.5151513,42.0,42.0,?
2017-06-01 16:50:47.847171,4542.09090864,12.3636363624,4225.27272685,12.3636363624,3935.75757536,152.48484847,3922.36363597,123.636363624,4289.66666624,4170.66666625,4470.99999955,3498.90909056,4208.27272685,2724.12121185,4350.45454502,2089.45454525,5016.03030253,2913.69696941,4187.66666625,3927.51515112,4426.18181774,8.2424242416,4227.33333291,4.1212121208,4842.42424194,0.0,4495.72727228,2159.5151513,42.0,42.0,?
2017-06-01 16:50:47.856745,4544.1515147,12.3636363624,4223.7272723,12.3636363624,3934.21212082,152.48484847,3926.48484809,123.636363624,4287.60606018,4170.66666625,4471.51515107,3498.90909056,4213.93939352,2724.12121185,4349.9393935,2089.45454525,5013.96969647,2913.69696941,4189.72727231,3927.51515112,4426.18181774,8.2424242416,4227.33333291,4.1212121208,4842.93939346,0.0,4496.75757531,2159.5151513,42.0,42.0,?
2017-06-01 16:50:47.862052,4541.06060561,12.3636363624,4221.15151473,12.3636363624,3938.84848445,152.48484847,3925.96969658,123.636363624,4289.66666624,4170.66666625,4476.1515147,3498.90909056,4224.24242382,2724.12121185,4356.12121169,2089.45454525,5027.36363586,2913.69696941,4197.45454503,3927.51515112,4426.18181774,8.2424242416,4229.39393897,4.1212121208,4839.84848436,0.0,4497.27272682,2159.5151513,42.0,42.0,?
2017-06-01 16:50:47.870101,4538.99999955,12.3636363624,4223.21212079,12.3636363624,3940.393939,152.48484847,3922.36363597,123.636363624,4288.12121169,4170.66666625,4473.06060561,3498.90909056,4218.57575715,2724.12121185,4353.54545411,2089.45454525,5021.18181768,2913.69696941,4195.39393897,3927.51515112,4426.18181774,8.2424242416,4228.87878746,4.1212121208,4840.36363588,0.0,4496.75757531,2159.5151513,42.0,42.0,?
2017-06-01 16:50:47.879207,4540.03030258,12.3636363624,4223.21212079,12.3636363624,3936.78787839,152.48484847,3924.42424203,123.636363624,4288.12121169,4170.66666625,4462.2424238,3498.90909056,4208.27272685,2724.12121185,4345.30302987,2089.45454525,5000.06060556,2913.69696941,4188.18181776,3927.51515112,4424.63636319,8.2424242416,4228.87878746,4.1212121208,4841.39393891,0.0,4493.66666622,2159.5151513,42.0,42.0,?
2017-06-01 16:50:47.886616,4541.57575712,12.3636363624,4223.7272723,12.3636363624,3932.15151476,152.48484847,3915.66666628,123.636363624,4288.63636321,4170.66666625,4457.09090865,3498.90909056,4214.45454503,2724.12121185,4348.90909047,2089.45454525,5002.63636314,2913.69696941,4185.09090867,3927.51515112,4425.66666622,8.2424242416,4228.87878746,4.1212121208,4842.42424194,0.0,4492.63636319,2159.5151513,42.0,42.0,?
2017-06-01 16:50:47.896153,4540.54545409,12.3636363624,4223.21212079,12.3636363624,3931.63636324,152.48484847,3901.75757537,123.636363624,4286.06060563,4170.66666625,4465.33333289,3498.90909056,4225.78787837,2724.12121185,4359.72727229,2089.45454525,5016.54545404,2913.69696941,4185.09090867,3927.51515112,4425.66666622,8.2424242416,4226.8181814,4.1212121208,4842.93939346,0.0,4491.60606016,2159.5151513,42.0,42.0,?
2017-06-01 16:50:47.902191,4540.03030258,12.3636363624,4222.69696927,12.3636363624,3937.30302991,152.48484847,3913.0909087,123.636363624,4288.12121169,4170.66666625,4471.51515107,3498.90909056,4227.84848443,2724.12121185,4362.30302987,2089.45454525,5020.15151465,2913.69696941,4189.21212079,3927.51515112,4423.60606016,8.2424242416,4226.8181814,4.1212121208,4841.39393891,0.0,4492.12121167,2159.5151513,42.0,42.0,?
2017-06-01 16:50:47.910880,4543.63636318,12.3636363624,4223.7272723,12.3636363624,3939.36363597,152.48484847,3932.66666627,123.636363624,4290.18181775,4170.66666625,4469.96969652,3498.90909056,4222.69696927,2724.12121185,4355.60606017,2089.45454525,5015.51515101,2913.69696941,4193.84848443,3927.51515112,4425.15151471,8.2424242416,4228.36363594,4.1212121208,4840.36363588,0.0,4495.72727228,2159.5151513,42.0,42.0,?
2017-06-01 16:50:47.917272,4540.54545409,12.3636363624,4222.18181776,12.3636363624,3939.36363597,152.48484847,3931.63636324,123.636363624,4291.21212078,4170.66666625,4473.57575713,3498.90909056,4224.75757534,2724.12121185,4354.57575714,2089.45454525,5019.63636313,2913.69696941,4197.96969655,3927.51515112,4426.69696925,8.2424242416,4229.39393897,4.1212121208,4838.30302982,0.0,4496.75757531,2159.5151513,42.0,42.0,?
2017-06-01 16:50:47.925181,4539.51515106,12.3636363624,4222.69696927,12.3636363624,3942.96969658,152.48484847,3929.06060567,123.636363624,4300.99999957,4170.66666625,4480.27272682,3498.90909056,4225.27272685,2724.12121185,4353.03030259,2089.45454525,5022.21212071,2913.69696941,4197.96969655,3927.51515112,4426.18181774,8.2424242416,4227.33333291,4.1212121208,4837.7878783,0.0,4497.78787834,2159.5151513,42.0,42.0,?
2017-06-01 16:50:47.934867,4542.60606015,12.3636363624,4222.69696927,12.3636363624,3942.96969658,152.48484847,3932.66666627,123.636363624,4302.54545412,4170.66666625,4475.12121167,3498.90909056,4212.39393897,2724.12121185,4342.72727229,2089.45454525,5008.3030298,2913.69696941,4187.15151473,3927.51515112,4425.66666622,8.2424242416,4226.30302988,4.1212121208,4840.87878739,0.0,4496.75757531,2159.5151513,42.0,42.0,?
2017-06-01 16:50:47.943484,4540.03030258,12.3636363624,4220.1212117,4.1212121208,3937.81818142,152.48484847,3929.06060567,123.636363624,4293.78787836,4170.66666625,4469.96969652,3498.90909056,4208.27272685,2724.12121185,4339.12121169,2089.45454525,5001.60606011,2913.69696941,4180.45454504,3927.51515112,4427.21212077,8.2424242416,4227.33333291,4.1212121208,4840.87878739,0.0,4494.18181773,2159.5151513,42.0,42.0,?
2017-06-01 16:50:47.948917,4539.51515106,12.3636363624,4223.21212079,4.1212121208,3932.66666627,152.48484847,3922.36363597,123.636363624,4290.18181775,4170.66666625,4472.5454541,3498.90909056,4213.93939352,2724.12121185,4342.72727229,2089.45454525,5006.75757526,2913.69696941,4183.54545413,3927.51515112,4428.75757531,8.2424242416,4226.8181814,4.1212121208,4840.36363588,0.0,4495.21212076,2167.75757554,42.0,42.0,?
2017-06-01 16:50:47.958186,4543.12121167,12.3636363624,4224.75757534,4.1212121208,3929.57575718,148.363636349,3911.54545415,123.636363624,4285.54545412,4170.66666625,4471.51515107,3498.90909056,4212.39393897,2724.12121185,4342.72727229,2089.45454525,5011.90909041,2913.69696941,4184.06060564,3927.51515112,4424.63636319,8.2424242416,4226.8181814,4.1212121208,4841.39393891,0.0,4494.69696925,2167.75757554,42.0,42.0,?
2017-06-01 16:50:47.965369,4542.60606015,12.3636363624,4221.15151473,4.1212121208,3934.21212082,148.363636349,3905.87878749,115.393939382,4281.93939351,4170.66666625,4467.39393895,3498.90909056,4211.36363594,2724.12121185,4345.30302987,2089.45454525,5016.54545404,2913.69696941,4179.93939352,3927.51515112,4425.15151471,8.2424242416,4228.87878746,4.1212121208,4844.484848,0.0,4494.69696925,2167.75757554,42.0,42.0,?
2017-06-01 16:50:47.973731,4541.57575712,12.3636363624,4221.66666624,4.1212121208,3937.30302991,148.363636349,3919.7878784,115.393939382,4289.66666624,4183.03030261,4466.87878743,3498.90909056,4213.93939352,2724.12121185,4345.30302987,2089.45454525,5014.48484798,2913.69696941,4179.42424201,3927.51515112,4428.2424238,8.2424242416,4225.78787837,4.1212121208,4843.45454497,0.0,4495.72727228,2167.75757554,42.0,42.0,?
2017-06-01 16:50:47.980753,4543.63636318,12.3636363624,4224.24242382,4.1212121208,3931.63636324,148.363636349,3933.6969693,115.393939382,4294.30302987,4183.03030261,4470.48484804,3503.03030268,4211.87878746,2724.12121185,4338.09090866,2089.45454525,5005.72727223,2913.69696941,4183.54545413,3927.51515112,4425.15151471,8.2424242416,4221.66666624,4.1212121208,4839.33333285,0.0,4495.21212076,2167.75757554,42.0,42.0,?
2017-06-01 16:50:47.990511,4544.1515147,12.3636363624,4223.7272723,4.1212121208,3925.96969658,148.363636349,3926.99999961,115.393939382,4285.54545412,4183.03030261,4469.45454501,3503.03030268,4212.39393897,2719.99999973,4339.6363632,2089.45454525,5003.15151465,2913.69696941,4182.5151511,3927.51515112,4422.57575713,8.2424242416,4226.30302988,4.1212121208,4839.33333285,0.0,4496.24242379,2167.75757554,42.0,42.0,?
2017-06-01 16:50:47.995618,4541.57575712,12.3636363624,4222.18181776,4.1212121208,3925.96969658,148.363636349,3912.57575718,115.393939382,4283.48484806,4183.03030261,4464.30302986,3503.03030268,4217.03030261,2719.99999973,4347.87878744,2085.33333312,5003.15151465,2913.69696941,4178.39393898,3927.51515112,4426.69696925,8.2424242416,4228.87878746,4.1212121208,4838.81818133,0.0,4496.24242379,2167.75757554,42.0,42.0,?
2017-06-01 16:50:48.004326,4543.63636318,12.3636363624,4222.69696927,4.1212121208,3932.15151476,148.363636349,3917.21212082,115.393939382,4298.42424199,4183.03030261,4470.99999955,3503.03030268,4221.66666624,2719.99999973,4350.96969653,2085.33333312,5006.75757526,2913.69696941,4187.66666625,3927.51515112,4429.27272683,8.2424242416,4226.8181814,4.1212121208,4837.7878783,0.0,4496.24242379,2167.75757554,42.0,42.0,?
2017-06-01 16:50:48.011842,4546.72727227,12.3636363624,4225.27272685,4.1212121208,3938.84848445,148.363636349,3932.15151476,115.393939382,4305.12121169,4183.03030261,4480.27272682,3503.03030268,4229.90909049,2719.99999973,4357.66666623,2085.33333312,5023.24242374,2913.69696941,4202.60606019,3927.51515112,4427.72727228,8.2424242416,4227.84848443,4.1212121208,4841.90909042,0.0,4499.33333288,2167.75757554,42.0,42.0,?
2017-06-01 16:50:48.019541,4542.60606015,12.3636363624,4224.75757534,4.1212121208,3936.27272688,148.363636349,3927.51515112,115.393939382,4293.27272684,4183.03030261,4477.18181773,3503.03030268,4228.87878746,2719.99999973,4357.66666623,2085.33333312,5024.78787829,2913.69696941,4201.06060564,3927.51515112,4425.66666622,12.3636363624,4226.8181814,4.1212121208,4843.96969649,0.0,4499.33333288,2167.75757554,42.0,42.0,?
2017-06-01 16:50:48.027841,4544.66666621,12.3636363624,4222.18181776,4.1212121208,3932.15151476,148.363636349,3913.60606021,115.393939382,4286.06060563,4183.03030261,4471.51515107,3503.03030268,4222.18181776,2719.99999973,4349.42424199,2085.33333312,5012.93939344,2913.69696941,4196.93939352,3927.51515112,4424.12121168,12.3636363624,4225.27272685,0.0,4840.87878739,0.0,4498.30302985,2167.75757554,42.0,42.0,?
2017-06-01 16:50:48.035234,4546.72727227,12.3636363624,4224.24242382,4.1212121208,3939.36363597,148.363636349,3923.393939,115.393939382,4297.90909048,4183.03030261,4476.1515147,3503.03030268,4222.18181776,2719.99999973,4354.06060563,2085.33333312,5018.6060601,2913.69696941,4205.69696928,3927.51515112,4424.63636319,12.3636363624,4227.84848443,0.0,4838.30302982,4.1212121208,4498.30302985,2167.75757554,42.0,42.0,?
2017-06-01 16:50:48.043218,4542.09090864,12.3636363624,4225.78787837,4.1212121208,3943.48484809,148.363636349,3936.27272688,115.393939382,4304.09090866,4183.03030261,4478.72727228,3503.03030268,4219.60606018,2719.99999973,4355.09090866,2085.33333312,5021.18181768,2913.69696941,4205.69696928,3931.63636324,4428.2424238,12.3636363624,4228.36363594,0.0,4838.81818133,4.1212121208,4498.81818137,2167.75757554,42.0,42.0,?
2017-06-01 16:50:48.050453,4541.57575712,12.3636363624,4223.21212079,4.1212121208,3936.78787839,148.363636349,3924.93939355,115.393939382,4295.84848442,4183.03030261,4475.63636319,3503.03030268,4208.78787837,2719.99999973,4342.21212078,2085.33333312,5008.3030298,2913.69696941,4193.33333291,3931.63636324,4429.78787834,0.0,4227.33333291,0.0,4840.87878739,4.1212121208,4499.33333288,2167.75757554,42.0,42.0,?
2017-06-01 16:50:48.059116,4543.63636318,12.3636363624,4221.15151473,4.1212121208,3937.81818142,148.363636349,3916.69696931,115.393939382,4290.69696927,4183.03030261,4472.5454541,3503.03030268,4208.27272685,2719.99999973,4341.18181775,2085.33333312,5010.36363586,2913.69696941,4197.45454503,3931.63636324,4427.72727228,0.0,4229.39393897,8.2424242416,4841.39393891,4.1212121208,4499.33333288,2167.75757554,42.0,42.0,?
2017-06-01 16:50:48.066577,4546.21212076,12.3636363624,4224.24242382,4.1212121208,3942.45454506,148.363636349,3921.84848446,115.393939382,4291.21212078,4183.03030261,4467.90909046,3503.03030268,4212.90909049,2719.99999973,4347.87878744,2085.33333312,5015.51515101,2913.69696941,4205.18181776,3931.63636324,4426.18181774,0.0,4229.39393897,8.2424242416,4840.87878739,4.1212121208,4498.81818137,2167.75757554,42.0,42.0,?
2017-06-01 16:50:48.074229,4544.1515147,12.3636363624,4227.33333291,4.1212121208,3940.90909052,148.363636349,3924.42424203,115.393939382,4293.78787836,4183.03030261,4465.8484844,3503.03030268,4207.75757534,2719.99999973,4342.72727229,2085.33333312,5003.66666617,2913.69696941,4196.424242,3931.63636324,4426.69696925,0.0,4225.78787837,8.2424242416,4838.30302982,4.1212121208,4496.75757531,2167.75757554,42.0,42.0,?
2017-06-01 16:50:48.081726,4541.57575712,12.3636363624,4226.8181814,4.1212121208,3940.393939,148.363636349,3924.93939355,115.393939382,4297.90909048,4183.03030261,4469.45454501,3503.03030268,4207.24242382,2719.99999973,4342.72727229,2085.33333312,5004.18181768,2913.69696941,4195.39393897,3931.63636324,4425.15151471,0.0,4227.33333291,8.2424242416,4839.33333285,4.1212121208,4496.24242379,2167.75757554,42.0,42.0,?
2017-06-01 16:50:48.089236,4545.18181773,12.3636363624,4227.84848443,4.1212121208,3939.87878748,148.363636349,3925.45454506,115.393939382,4293.27272684,4183.03030261,4467.90909046,3503.03030268,4212.39393897,2719.99999973,4350.96969653,2085.33333312,5018.6060601,2913.69696941,4204.66666625,3931.63636324,4425.15151471,0.0,4229.39393897,8.2424242416,4842.42424194,4.1212121208,4498.30302985,2167.75757554,42.0,42.0,?
2017-06-01 16:50:48.098044,4543.63636318,12.3636363624,4227.33333291,4.1212121208,3940.90909052,148.363636349,3923.90909052,115.393939382,4281.424242,4183.03030261,4459.66666622,3503.03030268,4205.18181776,2719.99999973,4346.3333329,2085.33333312,5014.9999995,2913.69696941,4202.60606019,3931.63636324,4425.66666622,0.0,4227.84848443,8.2424242416,4839.33333285,4.1212121208,4497.27272682,2167.75757554,42.0,42.0,?
2017-06-01 16:50:48.108649,4540.03030258,12.3636363624,4223.21212079,4.1212121208,3940.90909052,148.363636349,3918.24242385,115.393939382,4277.30302988,4183.03030261,4456.57575713,3503.03030268,4194.87878746,2719.99999973,4338.09090866,2085.33333312,5000.06060556,2913.69696941,4196.93939352,3931.63636324,4427.21212077,0.0,4227.33333291,8.2424242416,4836.24242376,4.1212121208,4496.75757531,2167.75757554,42.0,42.0,?
2017-06-01 16:50:48.115384,4542.09090864,12.3636363624,4221.15151473,4.1212121208,3938.33333294,148.363636349,3918.75757537,115.393939382,4283.48484806,4183.03030261,4456.57575713,3503.03030268,4198.48484806,2719.99999973,4340.66666623,2085.33333312,4999.03030253,2913.69696941,4198.48484806,3931.63636324,4428.75757531,0.0,4227.84848443,8.2424242416,4840.36363588,4.1212121208,4498.30302985,2167.75757554,42.0,42.0,?
2017-06-01 16:50:48.123159,4539.51515106,12.3636363624,4221.15151473,4.1212121208,3941.93939355,148.363636349,3928.03030264,115.393939382,4292.75757533,4183.03030261,4461.21212077,3503.03030268,4203.1212117,2719.99999973,4343.75757532,2085.33333312,5012.93939344,2913.69696941,4205.18181776,3931.63636324,4425.66666622,0.0,4226.30302988,8.2424242416,4840.87878739,4.1212121208,4497.27272682,2167.75757554,42.0,42.0,?
2017-06-01 16:50:48.128826,4539.51515106,12.3636363624,4222.18181776,4.1212121208,3943.48484809,148.363636349,3919.7878784,115.393939382,4295.3333329,4183.03030261,4468.42424198,3503.03030268,4198.48484806,2719.99999973,4340.66666623,2085.33333312,5018.6060601,2913.69696941,4209.8181814,3931.63636324,4425.15151471,0.0,4226.8181814,8.2424242416,4839.84848436,4.1212121208,4497.78787834,2167.75757554,42.0,42.0,?
2017-06-01 16:50:48.137703,4543.12121167,12.3636363624,4219.60606018,4.1212121208,3938.33333294,148.363636349,3907.93939355,115.393939382,4291.21212078,4183.03030261,4467.90909046,3503.03030268,4195.90909049,2719.99999973,4339.6363632,2085.33333312,5009.33333283,2913.69696941,4203.63636322,3931.63636324,4425.15151471,0.0,4229.39393897,8.2424242416,4840.87878739,4.1212121208,4497.78787834,2167.75757554,42.0,42.0,?
2017-06-01 16:50:48.145072,4542.60606015,12.3636363624,4221.66666624,4.1212121208,3940.90909052,148.363636349,3927.51515112,115.393939382,4295.3333329,4183.03030261,4466.36363592,3503.03030268,4202.09090867,2719.99999973,4342.21212078,2085.33333312,5009.84848435,2913.69696941,4196.424242,3931.63636324,4425.66666622,0.0,4228.36363594,8.2424242416,4840.36363588,4.1212121208,4495.72727228,2167.75757554,42.0,42.0,?
2017-06-01 16:50:48.155235,4541.06060561,12.3636363624,4227.33333291,4.1212121208,3948.63636324,148.363636349,3949.15151476,115.393939382,4303.06060563,4183.03030261,4472.03030258,3503.03030268,4205.18181776,2719.99999973,4343.24242381,2085.33333312,5020.66666616,2913.69696941,4201.06060564,3931.63636324,4428.75757531,0.0,4226.30302988,8.2424242416,4837.27272679,4.1212121208,4494.18181773,2167.75757554,42.0,42.0,?
2017-06-01 16:50:48.160203,4540.03030258,12.3636363624,4226.8181814,4.1212121208,3948.12121173,148.363636349,3937.81818142,115.393939382,4300.48484805,4183.03030261,4476.66666622,3503.03030268,4205.69696928,2719.99999973,4346.84848441,2085.33333312,5014.9999995,2913.69696941,4207.24242382,3931.63636324,4429.27272683,0.0,4227.84848443,8.2424242416,4837.27272679,4.1212121208,4495.21212076,2167.75757554,42.0,42.0,?
2017-06-01 16:50:48.167866,4543.12121167,12.3636363624,4224.24242382,4.1212121208,3940.393939,148.363636349,3918.24242385,115.393939382,4287.09090866,4183.03030261,4467.39393895,3503.03030268,4199.5151511,2719.99999973,4344.27272684,2085.33333312,4999.03030253,2913.69696941,4201.57575716,3931.63636324,4429.27272683,0.0,4229.39393897,8.2424242416,4841.39393891,4.1212121208,4499.33333288,2167.75757554,42.0,42.0,?
2017-06-01 16:50:48.175657,4547.7575753,12.3636363624,4222.69696927,4.1212121208,3935.24242385,148.363636349,3919.27272688,115.393939382,4275.75757533,4183.03030261,4454.51515107,3503.03030268,4191.27272685,2719.99999973,4332.93939351,2085.33333312,4999.54545405,2913.69696941,4194.36363594,3931.63636324,4428.2424238,0.0,4228.36363594,8.2424242416,4840.87878739,4.1212121208,4496.75757531,2167.75757554,42.0,42.0,?
2017-06-01 16:50:48.184462,4544.1515147,12.3636363624,4222.18181776,4.1212121208,3934.21212082,148.363636349,3927.51515112,115.393939382,4281.93939351,4183.03030261,4457.09090865,3503.03030268,4196.424242,2719.99999973,4331.90909048,2085.33333312,5006.24242374,2913.69696941,4194.36363594,3931.63636324,4425.15151471,0.0,4227.84848443,8.2424242416,4838.30302982,4.1212121208,4492.63636319,2167.75757554,42.0,42.0,?
2017-06-01 16:50:48.192047,4540.54545409,12.3636363624,4221.15151473,4.1212121208,3930.60606021,148.363636349,3919.7878784,115.393939382,4293.78787836,4183.03030261,4466.87878743,3503.03030268,4202.09090867,2719.99999973,4340.15151472,2085.33333312,5003.66666617,2913.69696941,4190.24242382,3931.63636324,4424.63636319,0.0,4226.8181814,8.2424242416,4841.90909042,4.1212121208,4494.18181773,2167.75757554,42.0,42.0,?
2017-06-01 16:50:48.199700,4543.63636318,12.3636363624,4221.66666624,4.1212121208,3926.48484809,148.363636349,3910.51515112,115.393939382,4294.30302987,4183.03030261,4470.48484804,3503.03030268,4199.5151511,2719.99999973,4341.18181775,2085.33333312,5003.66666617,2913.69696941,4185.60606019,3931.63636324,4426.18181774,0.0,4226.30302988,8.2424242416,4842.42424194,4.1212121208,4491.09090864,2167.75757554,42.0,42.0,?
2017-06-01 16:50:48.207349,4548.78787833,12.3636363624,4225.27272685,4.1212121208,3931.63636324,148.363636349,3917.72727234,115.393939382,4290.18181775,4183.03030261,4469.45454501,3503.03030268,4202.60606019,2719.99999973,4342.21212078,2085.33333312,5007.78787829,2913.69696941,4194.36363594,3931.63636324,4427.21212077,0.0,4228.87878746,8.2424242416,4840.36363588,4.1212121208,4489.03030258,2167.75757554,42.0,42.0,?
2017-06-01 16:50:48.215203,4545.18181773,12.3636363624,4225.78787837,4.1212121208,3936.78787839,148.363636349,3921.33333294,115.393939382,4291.21212078,4183.03030261,4471.51515107,3503.03030268,4209.8181814,2719.99999973,4348.90909047,2085.33333312,5011.90909041,2913.69696941,4203.63636322,3931.63636324,4426.18181774,0.0,4228.87878746,8.2424242416,4840.87878739,4.1212121208,4492.63636319,2167.75757554,42.0,42.0,?
2017-06-01 16:50:48.223151,4539.51515106,12.3636363624,4223.21212079,4.1212121208,3942.45454506,148.363636349,3923.393939,115.393939382,4301.51515109,4183.03030261,4480.27272682,3503.03030268,4213.93939352,2719.99999973,4355.09090866,2085.33333312,5020.15151465,2913.69696941,4207.24242382,3931.63636324,4426.18181774,0.0,4227.33333291,8.2424242416,4841.90909042,4.1212121208,4497.27272682,2167.75757554,42.0,42.0,?
2017-06-01 16:50:48.232299,4543.63636318,12.3636363624,4222.18181776,4.1212121208,3957.393939,148.363636349,3937.81818142,115.393939382,4315.42424199,4183.03030261,4486.96969652,3503.03030268,4216.51515109,2719.99999973,4358.69696926,2085.33333312,5028.90909041,2913.69696941,4213.424242,3931.63636324,4426.18181774,0.0,4227.84848443,8.2424242416,4841.90909042,4.1212121208,4501.39393894,2167.75757554,42.0,42.0,?
2017-06-01 16:50:48.249496,4544.66666621,12.3636363624,4222.18181776,4.1212121208,3938.33333294,148.363636349,3925.45454506,115.393939382,4282.96969654,4183.03030261,4461.72727228,3503.03030268,4192.30302988,2719.99999973,4333.45454502,2085.33333312,5009.84848435,2913.69696941,4192.8181814,3931.63636324,4425.66666622,0.0,4226.30302988,8.2424242416,4841.90909042,4.1212121208,4497.78787834,2167.75757554,42.0,42.0,?
2017-06-01 16:50:48.252280,4540.54545409,12.3636363624,4221.66666624,4.1212121208,3945.03030264,148.363636349,3929.57575718,115.393939382,4286.57575715,4183.03030261,4470.48484804,3503.03030268,4201.57575716,2719.99999973,4342.21212078,2085.33333312,5011.39393889,2913.69696941,4200.03030261,3931.63636324,4425.15151471,0.0,4223.7272723,8.2424242416,4838.81818133,4.1212121208,4498.30302985,2167.75757554,42.0,42.0,?
2017-06-01 16:50:48.256377,4540.54545409,12.3636363624,4221.66666624,4.1212121208,3945.03030264,148.363636349,3929.57575718,115.393939382,4286.57575715,4183.03030261,4470.48484804,3503.03030268,4201.57575716,2719.99999973,4342.21212078,2085.33333312,5011.39393889,2913.69696941,4200.03030261,3931.63636324,4425.15151471,0.0,4223.7272723,8.2424242416,4838.81818133,4.1212121208,4498.30302985,2167.75757554,42.0,42.0,?
2017-06-01 16:50:48.270569,4543.12121167,12.3636363624,4223.7272723,4.1212121208,3962.54545415,148.363636349,3925.45454506,115.393939382,4291.7272723,4183.03030261,4480.27272682,3503.03030268,4221.15151473,2719.99999973,4358.69696926,2085.33333312,5017.57575707,2913.69696941,4218.57575715,3931.63636324,4426.69696925,0.0,4228.87878746,8.2424242416,4839.33333285,4.1212121208,4497.78787834,2167.75757554,42.0,42.0,?
2017-06-01 16:50:48.289517,4543.63636318,12.3636363624,4222.18181776,4.1212121208,3940.393939,148.363636349,3926.99999961,115.393939382,4283.99999957,4183.03030261,4469.96969652,3503.03030268,4215.99999958,2719.99999973,4350.45454502,2085.33333312,5001.60606011,2913.69696941,4195.90909049,3931.63636324,4430.30302986,0.0,4228.87878746,8.2424242416,4842.42424194,4.1212121208,4497.27272682,2167.75757554,42.0,42.0,?
2017-06-01 16:50:48.289684,4543.63636318,12.3636363624,4222.18181776,4.1212121208,3940.393939,148.363636349,3926.99999961,115.393939382,4283.99999957,4183.03030261,4461.21212077,3503.03030268,4204.66666625,2719.99999973,4339.6363632,2085.33333312,5001.60606011,2913.69696941,4195.90909049,3931.63636324,4428.2424238,0.0,4228.87878746,8.2424242416,4840.87878739,4.1212121208,4495.21212076,2167.75757554,42.0,42.0,?
2017-06-01 16:50:48.295547,4540.54545409,12.3636363624,4220.1212117,4.1212121208,3941.42424203,148.363636349,3932.15151476,115.393939382,4293.78787836,4183.03030261,4466.87878743,3503.03030268,4207.75757534,2719.99999973,4343.75757532,2085.33333312,5012.93939344,2913.69696941,4198.99999958,3931.63636324,4425.15151471,0.0,4228.87878746,8.2424242416,4839.84848436,4.1212121208,4492.63636319,2167.75757554,42.0,42.0,?
2017-06-01 16:50:48.305427,4543.63636318,12.3636363624,4226.30302988,4.1212121208,3937.30302991,148.363636349,3929.06060567,115.393939382,4291.7272723,4183.03030261,4472.5454541,3503.03030268,4211.87878746,2719.99999973,4344.78787835,2085.33333312,5012.93939344,2913.69696941,4201.06060564,3931.63636324,4426.69696925,0.0,4228.36363594,8.2424242416,4843.45454497,4.1212121208,4494.18181773,2167.75757554,42.0,42.0,?
2017-06-01 16:50:48.307932,4540.03030258,12.3636363624,4225.27272685,4.1212121208,3939.36363597,148.363636349,3913.0909087,115.393939382,4297.39393896,4183.03030261,4471.51515107,3503.03030268,4211.36363594,2719.99999973,4344.27272684,2085.33333312,5011.39393889,2913.69696941,4204.66666625,3931.63636324,4424.63636319,0.0,4225.78787837,8.2424242416,4840.36363588,4.1212121208,4496.24242379,2167.75757554,42.0,42.0,?
2017-06-01 16:50:48.312207,4540.03030258,12.3636363624,4225.27272685,4.1212121208,3939.36363597,148.363636349,3913.0909087,115.393939382,4297.39393896,4183.03030261,4471.51515107,3503.03030268,4211.36363594,2719.99999973,4344.27272684,2085.33333312,5011.39393889,2913.69696941,4204.66666625,3931.63636324,4424.63636319,0.0,4225.78787837,8.2424242416,4840.36363588,4.1212121208,4496.24242379,2167.75757554,42.0,42.0,?
2017-06-01 16:50:48.319135,4540.03030258,12.3636363624,4222.18181776,4.1212121208,3950.18181779,148.363636349,3917.21212082,115.393939382,4308.7272723,4183.03030261,4480.78787834,3503.03030268,4214.96969655,2719.99999973,4349.9393935,2085.33333312,5024.27272677,2913.69696941,4216.51515109,3931.63636324,4424.12121168,0.0,4229.90909049,8.2424242416,4838.81818133,4.1212121208,4500.36363591,2167.75757554,42.0,42.0,?
2017-06-01 16:50:48.327891,4544.1515147,12.3636363624,4225.78787837,4.1212121208,3944.51515112,148.363636349,3933.18181779,115.393939382,4294.81818139,4183.03030261,4480.27272682,3503.03030268,4211.87878746,2719.99999973,4345.81818138,2085.33333312,5010.87878738,2913.69696941,4217.54545412,3931.63636324,4426.18181774,0.0,4230.93939352,8.2424242416,4841.39393891,4.1212121208,4501.39393894,2167.75757554,42.0,42.0,?
2017-06-01 16:50:48.342700,4543.12121167,12.3636363624,4226.30302988,4.1212121208,3931.63636324,148.363636349,3929.57575718,115.393939382,4277.30302988,4183.03030261,4470.99999955,3503.03030268,4205.69696928,2719.99999973,4338.09090866,2085.33333312,4999.03030253,2913.69696941,4212.39393897,3931.63636324,4425.66666622,0.0,4227.84848443,8.2424242416,4843.96969649,4.1212121208,4496.75757531,2167.75757554,42.0,42.0,?
2017-06-01 16:50:48.348938,4539.51515106,12.3636363624,4220.63636321,4.1212121208,3935.24242385,148.363636349,3922.87878749,115.393939382,4286.06060563,4183.03030261,4469.96969652,3503.03030268,4203.1212117,2719.99999973,4339.12121169,2085.33333312,5010.36363586,2913.69696941,4213.424242,3931.63636324,4425.66666622,0.0,4225.78787837,8.2424242416,4841.39393891,4.1212121208,4496.24242379,2167.75757554,42.0,42.0,?
2017-06-01 16:50:48.352473,4543.12121167,12.3636363624,4221.66666624,4.1212121208,3947.0909087,148.363636349,3921.84848446,115.393939382,4295.84848442,4183.03030261,4473.06060561,3503.03030268,4202.09090867,2719.99999973,4343.24242381,2085.33333312,5020.15151465,2913.69696941,4217.03030261,3931.63636324,4429.27272683,0.0,4227.84848443,8.2424242416,4841.39393891,4.1212121208,4502.42424197,2167.75757554,42.0,42.0,?
2017-06-01 16:50:48.356281,4543.12121167,12.3636363624,4226.8181814,4.1212121208,3940.90909052,148.363636349,3914.12121173,115.393939382,4283.48484806,4183.03030261,4467.90909046,3503.03030268,4199.5151511,2719.99999973,4339.12121169,2085.33333312,5007.27272677,2913.69696941,4207.75757534,3931.63636324,4431.84848441,0.0,4229.90909049,8.2424242416,4841.90909042,4.1212121208,4496.75757531,2167.75757554,42.0,42.0,?
2017-06-01 16:50:48.363491,4539.51515106,12.3636363624,4225.78787837,4.1212121208,3924.93939355,148.363636349,3916.18181779,115.393939382,4276.78787836,4183.03030261,4461.72727228,3503.03030268,4194.87878746,2719.99999973,4328.30302987,2085.33333312,4980.48484799,2913.69696941,4189.21212079,3931.63636324,4431.33333289,0.0,4227.33333291,8.2424242416,4839.33333285,4.1212121208,4486.96969652,2167.75757554,42.0,42.0,?
2017-06-01 16:50:48.373224,4540.54545409,12.3636363624,4224.24242382,4.1212121208,3925.96969658,148.363636349,3931.63636324,115.393939382,4290.69696927,4183.03030261,4465.8484844,3503.03030268,4196.424242,2719.99999973,4326.24242381,2085.33333312,4966.57575708,2913.69696941,4183.03030261,3931.63636324,4427.72727228,0.0,4225.78787837,8.2424242416,4840.36363588,4.1212121208,4489.03030258,2167.75757554,42.0,42.0,?
2017-06-01 16:50:48.380029,4540.03030258,12.3636363624,4224.24242382,4.1212121208,3935.24242385,148.363636349,3933.18181779,115.393939382,4296.87878745,4183.03030261,4470.99999955,3503.03030268,4202.60606019,2719.99999973,4338.60606017,2085.33333312,4990.27272677,2913.69696941,4190.75757534,3931.63636324,4426.18181774,0.0,4227.33333291,8.2424242416,4841.39393891,4.1212121208,4490.57575713,2167.75757554,42.0,42.0,?
2017-06-01 16:50:48.386844,4540.54545409,12.3636363624,4223.7272723,4.1212121208,3935.24242385,148.363636349,3925.45454506,115.393939382,4286.57575715,4183.03030261,4467.90909046,3503.03030268,4208.78787837,2719.99999973,4349.9393935,2085.33333312,5022.21212071,2913.69696941,4205.69696928,3931.63636324,4429.78787834,0.0,4228.36363594,8.2424242416,4842.42424194,4.1212121208,4491.09090864,2167.75757554,42.0,42.0,?
2017-06-01 16:50:48.394561,4542.60606015,12.3636363624,4222.18181776,4.1212121208,3935.24242385,148.363636349,3922.36363597,115.393939382,4278.84848442,4183.03030261,4461.21212077,3503.03030268,4206.72727231,2719.99999973,4350.45454502,2085.33333312,5017.57575707,2913.69696941,4215.99999958,3931.63636324,4428.75757531,0.0,4226.8181814,8.2424242416,4841.90909042,4.1212121208,4493.66666622,2167.75757554,42.0,42.0,?
2017-06-01 16:50:48.404535,4544.66666621,12.3636363624,4221.66666624,4.1212121208,3940.393939,148.363636349,3917.21212082,115.393939382,4276.27272685,4183.03030261,4457.60606016,3503.03030268,4198.48484806,2719.99999973,4340.66666623,2085.33333312,4997.9999995,2913.69696941,4213.424242,3931.63636324,4425.15151471,0.0,4225.27272685,8.2424242416,4840.87878739,4.1212121208,4494.18181773,2167.75757554,42.0,42.0,?
2017-06-01 16:50:48.411100,4546.72727227,12.3636363624,4222.18181776,4.1212121208,3937.81818142,148.363636349,3913.60606021,115.393939382,4274.21212078,4183.03030261,4452.96969652,3503.03030268,4189.21212079,2719.99999973,4329.84848442,2085.33333312,4996.45454495,2913.69696941,4207.24242382,3931.63636324,4426.69696925,0.0,4225.78787837,8.2424242416,4841.90909042,4.1212121208,4492.12121167,2167.75757554,42.0,42.0,?
2017-06-01 16:50:48.420072,4543.12121167,12.3636363624,4222.69696927,4.1212121208,3937.30302991,148.363636349,3921.33333294,115.393939382,4280.90909048,4183.03030261,4455.5454541,3503.03030268,4190.75757534,2719.99999973,4336.0303026,2085.33333312,5008.81818132,2913.69696941,4215.99999958,3931.63636324,4426.18181774,0.0,4228.87878746,8.2424242416,4840.87878739,4.1212121208,4491.60606016,2167.75757554,42.0,42.0,?
2017-06-01 16:50:48.425407,4543.12121167,12.3636363624,4222.69696927,4.1212121208,3941.93939355,148.363636349,3926.48484809,115.393939382,4285.54545412,4183.03030261,4462.2424238,3503.03030268,4194.36363594,2719.99999973,4343.24242381,2085.33333312,5011.39393889,2913.69696941,4226.30302988,3931.63636324,4424.63636319,0.0,4227.84848443,8.2424242416,4841.90909042,4.1212121208,4494.18181773,2167.75757554,42.0,42.0,?
2017-06-01 16:50:48.434568,4546.72727227,12.3636363624,4223.7272723,4.1212121208,3937.81818142,148.363636349,3918.75757537,115.393939382,4277.30302988,4183.03030261,4458.12121168,3503.03030268,4187.66666625,2719.99999973,4330.87878745,2085.33333312,4996.96969647,2913.69696941,4214.96969655,3931.63636324,4425.66666622,0.0,4225.78787837,8.2424242416,4842.93939346,4.1212121208,4490.06060561,2167.75757554,42.0,42.0,?
2017-06-01 16:50:48.443677,4544.1515147,4.1212121208,4225.27272685,4.1212121208,3932.66666627,148.363636349,3913.60606021,115.393939382,4272.15151472,4183.03030261,4449.36363592,3503.03030268,4185.09090867,2719.99999973,4325.21212078,2085.33333312,4995.42424192,2913.69696941,4208.27272685,3931.63636324,4427.21212077,0.0,4227.84848443,8.2424242416,4840.36363588,4.1212121208,4486.96969652,2167.75757554,42.0,42.0,?
2017-06-01 16:50:48.450219,4545.18181773,4.1212121208,4227.33333291,4.1212121208,3940.393939,148.363636349,3921.33333294,115.393939382,4280.90909048,4183.03030261,4453.48484804,3503.03030268,4192.30302988,2719.99999973,4337.06060563,2085.33333312,5008.3030298,2913.69696941,4215.99999958,3931.63636324,4428.75757531,0.0,4228.36363594,8.2424242416,4840.36363588,4.1212121208,4493.1515147,2167.75757554,42.0,42.0,?
2017-06-01 16:50:48.459232,4544.66666621,4.1212121208,4224.75757534,4.1212121208,3953.27272688,148.363636349,3933.18181779,115.393939382,4287.60606018,4183.03030261,4464.30302986,3503.03030268,4199.5151511,2719.99999973,4343.24242381,2085.33333312,5010.87878738,2913.69696941,4219.60606018,3931.63636324,4427.72727228,0.0,4226.8181814,8.2424242416,4841.90909042,4.1212121208,4496.24242379,2167.75757554,42.0,42.0,?
2017-06-01 16:50:48.465391,4540.54545409,4.1212121208,4223.7272723,4.1212121208,3952.75757536,160.727272711,3934.21212082,115.393939382,4282.96969654,4183.03030261,4464.81818137,3503.03030268,4196.424242,2719.99999973,4337.06060563,2085.33333312,5003.66666617,2913.69696941,4213.93939352,3931.63636324,4426.69696925,0.0,4227.84848443,8.2424242416,4840.36363588,4.1212121208,4493.1515147,2167.75757554,42.0,42.0,?
2017-06-01 16:50:48.474233,4543.12121167,4.1212121208,4224.75757534,4.1212121208,3939.36363597,160.727272711,3934.21212082,107.151515141,4277.30302988,4183.03030261,4456.06060561,3503.03030268,4190.75757534,2719.99999973,4334.99999957,2085.33333312,5004.18181768,2913.69696941,4205.69696928,3931.63636324,4427.21212077,0.0,4225.78787837,8.2424242416,4840.36363588,4.1212121208,4489.5454541,2167.75757554,42.0,42.0,?
2017-06-01 16:50:48.480454,4545.18181773,4.1212121208,4219.09090867,4.1212121208,3932.66666627,160.727272711,3928.03030264,107.151515141,4278.33333291,4183.03030261,4452.45454501,3503.03030268,4193.33333291,2719.99999973,4338.09090866,2085.33333312,5004.6969692,2913.69696941,4203.1212117,3931.63636324,4426.69696925,0.0,4223.21212079,8.2424242416,4842.42424194,4.1212121208,4487.48484804,2167.75757554,42.0,42.0,?
2017-06-01 16:50:48.489388,4543.63636318,4.1212121208,4219.60606018,4.1212121208,3939.36363597,160.727272711,3911.54545415,107.151515141,4282.45454503,4183.03030261,4456.06060561,3503.03030268,4196.424242,2719.99999973,4338.09090866,2085.33333312,5000.57575708,2913.69696941,4210.84848443,3931.63636324,4426.69696925,0.0,4229.39393897,8.2424242416,4843.45454497,4.1212121208,4493.1515147,2167.75757554,42.0,42.0,?
2017-06-01 16:50:48.496978,4543.12121167,4.1212121208,4225.27272685,4.1212121208,3947.0909087,160.727272711,3923.90909052,107.151515141,4290.18181775,4183.03030261,4461.21212077,3503.03030268,4198.48484806,2719.99999973,4341.69696926,2085.33333312,5009.84848435,2913.69696941,4221.15151473,3931.63636324,4427.72727228,0.0,4231.45454503,8.2424242416,4841.90909042,4.1212121208,4496.24242379,2167.75757554,42.0,42.0,?
2017-06-01 16:50:48.504509,4543.12121167,4.1212121208,4225.27272685,4.1212121208,3943.99999961,160.727272711,3949.15151476,107.151515141,4292.75757533,4183.03030261,4461.72727228,3503.03030268,4198.48484806,2719.99999973,4345.81818138,2081.212121,5018.09090859,2913.69696941,4218.06060564,3931.63636324,4428.75757531,0.0,4226.8181814,8.2424242416,4839.84848436,4.1212121208,4492.12121167,2167.75757554,42.0,42.0,?
2017-06-01 16:50:48.511963,4543.12121167,4.1212121208,4222.69696927,4.1212121208,3936.78787839,160.727272711,3938.84848445,107.151515141,4281.424242,4183.03030261,4457.60606016,3503.03030268,4194.87878746,2719.99999973,4342.21212078,2081.212121,5009.84848435,2905.45454516,4209.8181814,3931.63636324,4428.2424238,0.0,4226.30302988,8.2424242416,4840.36363588,4.1212121208,4491.09090864,2167.75757554,42.0,42.0,?
2017-06-01 16:50:48.519456,4543.12121167,4.1212121208,4226.30302988,4.1212121208,3937.30302991,160.727272711,3921.33333294,107.151515141,4278.33333291,4183.03030261,4456.06060561,3503.03030268,4195.90909049,2719.99999973,4336.0303026,2081.212121,5001.09090859,2905.45454516,4211.36363594,3931.63636324,4426.18181774,0.0,4225.78787837,8.2424242416,4841.39393891,4.1212121208,4493.1515147,2167.75757554,42.0,42.0,?
2017-06-01 16:50:48.528080,4542.09090864,4.1212121208,4226.8181814,4.1212121208,3937.30302991,160.727272711,3926.99999961,107.151515141,4283.48484806,4183.03030261,4459.15151471,3503.03030268,4203.63636322,2719.99999973,4338.60606017,2081.212121,5003.15151465,2905.45454516,4212.90909049,3931.63636324,4426.69696925,0.0,4227.33333291,8.2424242416,4840.36363588,4.1212121208,4493.66666622,2167.75757554,42.0,42.0,?
2017-06-01 16:50:48.536442,4538.99999955,4.1212121208,4220.1212117,4.1212121208,3932.15151476,160.727272711,3929.57575718,107.151515141,4280.39393897,4183.03030261,4458.63636319,3503.03030268,4211.87878746,2719.99999973,4346.84848441,2081.212121,5010.87878738,2905.45454516,4212.39393897,3931.63636324,4428.75757531,0.0,4228.36363594,12.3636363624,4840.36363588,4.1212121208,4492.63636319,2167.75757554,42.0,42.0,?
2017-06-01 16:50:48.544376,4540.54545409,4.1212121208,4220.63636321,4.1212121208,3931.12121173,160.727272711,3921.84848446,107.151515141,4278.84848442,4183.03030261,4456.06060561,3503.03030268,4214.45454503,2719.99999973,4345.81818138,2081.212121,5011.39393889,2905.45454516,4211.36363594,3931.63636324,4428.2424238,0.0,4226.30302988,12.3636363624,4840.87878739,8.2424242416,4491.60606016,2167.75757554,42.0,42.0,?
2017-06-01 16:50:48.552047,4546.21212076,4.1212121208,4225.27272685,4.1212121208,3928.03030264,160.727272711,3911.54545415,107.151515141,4280.90909048,4183.03030261,4455.5454541,3503.03030268,4208.78787837,2719.99999973,4339.12121169,2081.212121,5002.12121162,2905.45454516,4202.09090867,3927.51515112,4426.18181774,0.0,4225.78787837,12.3636363624,4839.84848436,8.2424242416,4490.57575713,2167.75757554,42.0,42.0,?
2017-06-01 16:50:48.559379,4544.1515147,4.1212121208,4223.21212079,4.1212121208,3917.21212082,160.727272711,3903.30302991,107.151515141,4275.24242381,4183.03030261,4454.51515107,3503.03030268,4200.54545413,2719.99999973,4336.0303026,2081.212121,4999.54545405,2905.45454516,4190.24242382,3927.51515112,4425.66666622,12.3636363624,4227.33333291,12.3636363624,4840.36363588,8.2424242416,4488.51515107,2167.75757554,42.0,42.0,?
2017-06-01 16:50:48.574254,4541.06060561,4.1212121208,4221.15151473,4.1212121208,3913.60606021,160.727272711,3906.90909052,107.151515141,4272.66666624,4183.03030261,4455.5454541,3503.03030268,4197.96969655,2719.99999973,4333.96969654,2081.212121,5005.72727223,2905.45454516,4187.66666625,3927.51515112,4428.2424238,12.3636363624,4228.87878746,12.3636363624,4843.96969649,8.2424242416,4490.57575713,2167.75757554,42.0,42.0,?
2017-06-01 16:50:48.578042,4543.63636318,4.1212121208,4221.66666624,4.1212121208,3914.63636324,160.727272711,3908.96969658,107.151515141,4273.69696927,4183.03030261,4453.48484804,3503.03030268,4196.93939352,2719.99999973,4331.39393896,2081.212121,4998.51515102,2905.45454516,4187.66666625,3927.51515112,4429.27272683,12.3636363624,4228.87878746,12.3636363624,4842.42424194,8.2424242416,4492.12121167,2167.75757554,42.0,42.0,?
2017-06-01 16:50:48.583627,4544.1515147,4.1212121208,4221.66666624,4.1212121208,3908.45454506,160.727272711,3892.99999961,107.151515141,4265.45454503,4183.03030261,4445.75757531,3503.03030268,4189.21212079,2719.99999973,4327.78787836,2081.212121,4986.66666617,2905.45454516,4180.96969655,3927.51515112,4425.66666622,12.3636363624,4226.30302988,12.3636363624,4838.81818133,8.2424242416,4489.5454541,2167.75757554,42.0,42.0,?
2017-06-01 16:50:48.590901,4541.06060561,4.1212121208,4222.18181776,4.1212121208,3905.36363597,160.727272711,3882.18181779,107.151515141,4263.90909048,4183.03030261,4444.72727228,3503.03030268,4186.1212117,2719.99999973,4322.12121169,2081.212121,4986.15151465,2905.45454516,4179.42424201,3927.51515112,4424.63636319,12.3636363624,4224.75757534,12.3636363624,4841.90909042,8.2424242416,4489.03030258,2167.75757554,42.0,42.0,?
2017-06-01 16:50:48.597496,4538.99999955,4.1212121208,4221.66666624,4.1212121208,3916.18181779,160.727272711,3898.66666628,107.151515141,4277.30302988,4183.03030261,4455.5454541,3503.03030268,4194.87878746,2719.99999973,4327.78787836,2081.212121,4995.42424192,2905.45454516,4192.30302988,3927.51515112,4425.66666622,12.3636363624,4227.84848443,12.3636363624,4841.90909042,8.2424242416,4489.5454541,2167.75757554,42.0,42.0,?
2017-06-01 16:50:48.605444,4541.06060561,4.1212121208,4222.69696927,4.1212121208,3921.84848446,160.727272711,3915.66666628,107.151515141,4285.54545412,4183.03030261,4461.21212077,3503.03030268,4201.57575716,2719.99999973,4340.15151472,2081.212121,5002.63636314,2905.45454516,4200.03030261,3927.51515112,4425.66666622,12.3636363624,4228.36363594,12.3636363624,4840.36363588,8.2424242416,4493.1515147,2167.75757554,42.0,42.0,?
2017-06-01 16:50:48.614990,4544.66666621,4.1212121208,4224.24242382,4.1212121208,3912.06060567,160.727272711,3908.96969658,107.151515141,4275.75757533,4183.03030261,4453.48484804,3503.03030268,4195.90909049,2719.99999973,4332.42424199,2081.212121,4989.75757526,2905.45454516,4188.69696928,3927.51515112,4425.15151471,12.3636363624,4225.78787837,12.3636363624,4841.90909042,8.2424242416,4494.18181773,2167.75757554,42.0,42.0,?
2017-06-01 16:50:48.621513,4544.66666621,4.1212121208,4221.66666624,4.1212121208,3908.45454506,160.727272711,3904.33333294,107.151515141,4269.06060563,4183.03030261,4452.96969652,3503.03030268,4191.27272685,2719.99999973,4322.6363632,2081.212121,4979.45454496,2905.45454516,4184.06060564,3927.51515112,4427.21212077,12.3636363624,4225.27272685,12.3636363624,4841.90909042,8.2424242416,4491.09090864,2167.75757554,42.0,42.0,?
2017-06-01 16:50:48.629699,4546.21212076,4.1212121208,4221.66666624,4.1212121208,3920.30302991,160.727272711,3916.69696931,107.151515141,4283.48484806,4183.03030261,4463.78787834,3503.03030268,4201.57575716,2719.99999973,4337.57575714,2081.212121,4996.96969647,2905.45454516,4195.90909049,3927.51515112,4429.27272683,12.3636363624,4226.30302988,12.3636363624,4842.42424194,8.2424242416,4492.63636319,2167.75757554,42.0,42.0,?
2017-06-01 16:50:48.638160,4544.66666621,4.1212121208,4224.24242382,4.1212121208,3926.99999961,160.727272711,3923.393939,107.151515141,4291.21212078,4183.03030261,4468.42424198,3503.03030268,4211.87878746,2719.99999973,4347.36363593,2081.212121,5009.33333283,2905.45454516,4202.60606019,3927.51515112,4426.69696925,12.3636363624,4227.33333291,12.3636363624,4840.87878739,8.2424242416,4493.66666622,2167.75757554,42.0,42.0,?
2017-06-01 16:50:48.644474,4543.63636318,4.1212121208,4225.27272685,4.1212121208,3929.57575718,160.727272711,3922.87878749,107.151515141,4282.96969654,4183.03030261,4466.36363592,3503.03030268,4212.39393897,2719.99999973,4342.21212078,2081.212121,5000.57575708,2905.45454516,4205.18181776,3927.51515112,4424.12121168,12.3636363624,4227.33333291,12.3636363624,4838.30302982,8.2424242416,4496.24242379,2167.75757554,42.0,42.0,?
2017-06-01 16:50:48.652446,4545.18181773,4.1212121208,4225.27272685,4.1212121208,3938.33333294,160.727272711,3926.48484809,107.151515141,4286.57575715,4183.03030261,4469.96969652,3503.03030268,4215.99999958,2719.99999973,4344.27272684,2081.212121,5002.63636314,2905.45454516,4209.8181814,3927.51515112,4428.2424238,12.3636363624,4226.8181814,12.3636363624,4840.87878739,8.2424242416,4500.87878743,2167.75757554,42.0,42.0,?
2017-06-01 16:50:48.661067,4544.66666621,4.1212121208,4224.24242382,4.1212121208,3945.03030264,160.727272711,3924.93939355,107.151515141,4294.30302987,4183.03030261,4470.99999955,3503.03030268,4215.99999958,2719.99999973,4346.84848441,2081.212121,5009.33333283,2905.45454516,4207.75757534,3927.51515112,4429.78787834,12.3636363624,4226.30302988,12.3636363624,4841.39393891,8.2424242416,4501.39393894,2167.75757554,42.0,42.0,?
2017-06-01 16:50:48.684996,4545.18181773,4.1212121208,4224.24242382,4.1212121208,3946.06060567,160.727272711,3915.15151476,107.151515141,4280.39393897,4183.03030261,4461.21212077,3503.03030268,4204.15151473,2719.99999973,4336.54545411,2081.212121,5000.57575708,2905.45454516,4206.72727231,3927.51515112,4426.69696925,12.3636363624,4226.30302988,12.3636363624,4838.30302982,8.2424242416,4499.8484844,2167.75757554,42.0,42.0,?
2017-06-01 16:50:48.690487,4540.54545409,4.1212121208,4223.7272723,4.1212121208,3949.66666627,160.727272711,3917.72727234,107.151515141,4274.21212078,4183.03030261,4461.21212077,3503.03030268,4199.5151511,2719.99999973,4330.36363593,2081.212121,4993.36363586,2905.45454516,4227.33333291,3927.51515112,4425.15151471,12.3636363624,4229.39393897,12.3636363624,4839.33333285,8.2424242416,4504.99999955,2167.75757554,42.0,42.0,?
2017-06-01 16:50:48.692976,4537.96969652,4.1212121208,4223.7272723,4.1212121208,3962.54545415,160.727272711,3924.42424203,107.151515141,4286.06060563,4183.03030261,4473.06060561,3503.03030268,4212.90909049,2719.99999973,4341.18181775,2081.212121,4999.54545405,2905.45454516,4256.18181776,3927.51515112,4427.21212077,12.3636363624,4230.424242,12.3636363624,4843.45454497,8.2424242416,4516.33333288,2167.75757554,42.0,42.0,?
2017-06-01 16:50:48.696220,4543.63636318,4.1212121208,4226.30302988,4.1212121208,3975.93939354,160.727272711,3918.75757537,107.151515141,4287.60606018,4183.03030261,4473.57575713,3503.03030268,4223.21212079,2719.99999973,4352.51515108,2081.212121,5004.18181768,2905.45454516,4268.0303026,3927.51515112,4427.21212077,12.3636363624,4227.84848443,12.3636363624,4841.39393891,8.2424242416,4519.42424197,2167.75757554,42.0,42.0,?
2017-06-01 16:50:48.700618,4544.66666621,4.1212121208,4224.75757534,4.1212121208,3984.6969693,160.727272711,3921.33333294,107.151515141,4291.21212078,4183.03030261,4473.06060561,3503.03030268,4225.78787837,2719.99999973,4355.09090866,2081.212121,5013.45454495,2905.45454516,4275.24242381,3927.51515112,4424.63636319,12.3636363624,4228.36363594,12.3636363624,4837.27272679,8.2424242416,4517.87878743,2167.75757554,42.0,42.0,?
2017-06-01 16:50:48.707952,4543.12121167,4.1212121208,4222.18181776,4.1212121208,3996.03030263,160.727272711,3933.6969693,107.151515141,4303.06060563,4183.03030261,4483.87878743,3503.03030268,4230.424242,2719.99999973,4355.09090866,2081.212121,5030.45454495,2905.45454516,4290.69696927,3927.51515112,4424.63636319,12.3636363624,4232.48484806,12.3636363624,4839.33333285,8.2424242416,4524.57575712,2167.75757554,42.0,42.0,?
2017-06-01 16:50:48.716677,4543.63636318,4.1212121208,4223.21212079,4.1212121208,4011.9999996,160.727272711,3937.81818142,107.151515141,4302.54545412,4183.03030261,4487.99999955,3503.03030268,4233.51515109,2719.99999973,4357.66666623,2081.212121,5035.6060601,2905.45454516,4301.51515109,3927.51515112,4425.15151471,12.3636363624,4230.93939352,12.3636363624,4840.87878739,8.2424242416,4531.27272682,2167.75757554,42.0,42.0,?
2017-06-01 16:50:48.724437,4542.60606015,4.1212121208,4224.75757534,4.1212121208,4014.57575717,160.727272711,3933.6969693,107.151515141,4298.93939351,4183.03030261,4481.81818137,3503.03030268,4233.51515109,2719.99999973,4355.09090866,2081.212121,5025.81818132,2905.45454516,4296.87878745,3927.51515112,4426.18181774,12.3636363624,4227.33333291,12.3636363624,4839.84848436,8.2424242416,4530.24242379,2167.75757554,42.0,42.0,?
2017-06-01 16:50:48.730926,4543.12121167,4.1212121208,4224.24242382,4.1212121208,4003.75757536,160.727272711,3918.24242385,107.151515141,4302.0303026,4183.03030261,4482.33333289,3503.03030268,4229.90909049,2719.99999973,4347.36363593,2081.212121,5013.45454495,2905.45454516,4281.424242,3927.51515112,4425.66666622,12.3636363624,4227.33333291,12.3636363624,4840.87878739,8.2424242416,4528.69696924,2167.75757554,42.0,42.0,?
2017-06-01 16:50:48.739406,4543.12121167,4.1212121208,4221.66666624,4.1212121208,4007.36363596,160.727272711,3907.42424203,107.151515141,4301.51515109,4183.03030261,4485.42424198,3503.03030268,4228.36363594,2719.99999973,4350.45454502,2081.212121,5007.27272677,2905.45454516,4270.60606018,3927.51515112,4424.12121168,12.3636363624,4225.27272685,12.3636363624,4842.93939346,8.2424242416,4528.18181773,2167.75757554,42.0,42.0,?
2017-06-01 16:50:48.747777,4542.60606015,4.1212121208,4222.18181776,4.1212121208,4021.78787839,160.727272711,3920.81818143,107.151515141,4300.99999957,4183.03030261,4484.39393895,3503.03030268,4235.57575715,2719.99999973,4361.78787835,2081.212121,5017.06060556,2905.45454516,4274.7272723,3927.51515112,4426.18181774,12.3636363624,4227.33333291,12.3636363624,4844.484848,8.2424242416,4528.69696924,2167.75757554,42.0,42.0,?
2017-06-01 16:50:48.756845,4542.60606015,4.1212121208,4226.30302988,4.1212121208,4020.24242384,160.727272711,3934.21212082,107.151515141,4309.75757533,4183.03030261,4489.03030258,3503.03030268,4245.87878745,2719.99999973,4366.9393935,2081.212121,5033.03030253,2905.45454516,4281.424242,3927.51515112,4428.75757531,12.3636363624,4231.96969655,12.3636363624,4841.90909042,8.2424242416,4529.21212076,2167.75757554,42.0,42.0,?
2017-06-01 16:50:48.769053,4543.12121167,4.1212121208,4226.8181814,4.1212121208,4002.72727233,160.727272711,3928.03030264,107.151515141,4293.27272684,4183.03030261,4490.57575713,3503.03030268,4244.84848442,2719.99999973,4363.3333329,2081.212121,5029.93939344,2905.45454516,4274.21212078,3927.51515112,4426.69696925,12.3636363624,4228.87878746,12.3636363624,4840.36363588,8.2424242416,4525.60606015,2167.75757554,42.0,42.0,?
2017-06-01 16:50:48.770755,4544.1515147,4.1212121208,4222.18181776,4.1212121208,3986.75757536,160.727272711,3911.54545415,107.151515141,4293.27272684,4183.03030261,4473.57575713,3503.03030268,4229.39393897,2719.99999973,4350.96969653,2081.212121,5003.15151465,2905.45454516,4253.09090867,3927.51515112,4423.60606016,12.3636363624,4224.24242382,12.3636363624,4841.39393891,8.2424242416,4518.90909046,2167.75757554,42.0,42.0,?
2017-06-01 16:50:48.778731,4543.63636318,4.1212121208,4218.57575715,4.1212121208,3976.45454506,160.727272711,3892.4848481,107.151515141,4285.0303026,4183.03030261,4459.66666622,3503.03030268,4215.99999958,2719.99999973,4338.09090866,2081.212121,4991.3030298,2905.45454516,4232.48484806,3927.51515112,4426.18181774,12.3636363624,4226.8181814,12.3636363624,4840.36363588,8.2424242416,4512.72727228,2167.75757554,42.0,42.0,?
2017-06-01 16:50:48.786204,4544.66666621,4.1212121208,4221.66666624,4.1212121208,3966.15151475,160.727272711,3895.57575719,107.151515141,4288.12121169,4183.03030261,4469.45454501,3503.03030268,4220.63636321,2719.99999973,4341.69696926,2081.212121,5003.66666617,2905.45454516,4228.87878746,3927.51515112,4430.81818138,12.3636363624,4231.96969655,12.3636363624,4839.84848436,8.2424242416,4511.69696925,2167.75757554,42.0,42.0,?
2017-06-01 16:50:48.794588,4544.66666621,4.1212121208,4224.24242382,4.1212121208,3964.09090869,160.727272711,3922.36363597,107.151515141,4300.48484805,4183.03030261,4487.99999955,3503.03030268,4238.66666624,2719.99999973,4358.18181775,2081.212121,5017.57575707,2905.45454516,4236.09090867,3927.51515112,4428.2424238,12.3636363624,4228.36363594,12.3636363624,4841.90909042,8.2424242416,4512.72727228,2167.75757554,42.0,42.0,?
2017-06-01 16:50:48.802582,4543.63636318,4.1212121208,4223.21212079,4.1212121208,3964.60606021,160.727272711,3928.03030264,107.151515141,4311.30302987,4183.03030261,4490.06060561,3503.03030268,4244.84848442,2719.99999973,4363.3333329,2081.212121,5017.57575707,2905.45454516,4232.99999958,3927.51515112,4427.21212077,12.3636363624,4223.7272723,12.3636363624,4842.42424194,8.2424242416,4509.12121167,2167.75757554,42.0,42.0,?
2017-06-01 16:50:48.811684,4544.1515147,4.1212121208,4224.24242382,4.1212121208,3955.84848445,160.727272711,3912.57575718,107.151515141,4305.12121169,4183.03030261,4477.69696925,3503.03030268,4232.99999958,2719.99999973,4354.06060563,2081.212121,5003.66666617,2905.45454516,4219.09090867,3927.51515112,4429.78787834,12.3636363624,4225.27272685,12.3636363624,4842.42424194,8.2424242416,4507.57575713,2167.75757554,42.0,42.0,?
2017-06-01 16:50:48.820029,4539.51515106,4.1212121208,4224.75757534,4.1212121208,3950.18181779,160.727272711,3911.03030264,107.151515141,4291.21212078,4183.03030261,4470.48484804,3503.03030268,4225.27272685,2719.99999973,4347.87878744,2081.212121,4995.93939344,2905.45454516,4212.39393897,3927.51515112,4427.72727228,12.3636363624,4227.33333291,12.3636363624,4842.42424194,8.2424242416,4504.99999955,2167.75757554,42.0,42.0,?
2017-06-01 16:50:48.824557,4541.57575712,4.1212121208,4224.24242382,4.1212121208,3952.75757536,160.727272711,3916.18181779,107.151515141,4288.12121169,4183.03030261,4470.48484804,3503.03030268,4224.75757534,2719.99999973,4348.39393896,2081.212121,5002.12121162,2905.45454516,4212.39393897,3927.51515112,4426.69696925,12.3636363624,4226.8181814,12.3636363624,4839.33333285,8.2424242416,4501.90909046,2167.75757554,42.0,42.0,?
2017-06-01 16:50:48.832660,4548.27272682,4.1212121208,4223.21212079,4.1212121208,3948.63636324,160.727272711,3909.99999961,107.151515141,4289.15151472,4183.03030261,4470.48484804,3503.03030268,4220.63636321,2719.99999973,4347.87878744,2081.212121,5005.72727223,2905.45454516,4210.84848443,3927.51515112,4428.75757531,12.3636363624,4227.33333291,12.3636363624,4839.84848436,8.2424242416,4500.87878743,2167.75757554,42.0,42.0,?
2017-06-01 16:50:48.841932,4544.66666621,4.1212121208,4221.15151473,4.1212121208,3941.42424203,160.727272711,3896.0909087,107.151515141,4285.0303026,4183.03030261,4470.48484804,3503.03030268,4217.03030261,2719.99999973,4346.3333329,2081.212121,5002.12121162,2905.45454516,4205.69696928,3927.51515112,4427.72727228,12.3636363624,4227.84848443,12.3636363624,4843.45454497,8.2424242416,4499.33333288,2167.75757554,42.0,42.0,?
2017-06-01 16:50:48.849563,4545.18181773,4.1212121208,4222.18181776,4.1212121208,3934.21212082,160.727272711,3885.27272688,107.151515141,4278.33333291,4183.03030261,4461.72727228,3503.03030268,4212.90909049,2719.99999973,4338.60606017,2081.212121,4992.33333283,2905.45454516,4192.8181814,3927.51515112,4428.2424238,12.3636363624,4227.33333291,12.3636363624,4842.93939346,8.2424242416,4499.33333288,2167.75757554,42.0,42.0,?
2017-06-01 16:50:48.856633,4546.72727227,4.1212121208,4223.7272723,4.1212121208,3924.42424203,160.727272711,3887.33333294,107.151515141,4272.66666624,4183.03030261,4449.87878743,3503.03030268,4209.30302988,2719.99999973,4332.93939351,2081.212121,4988.72727223,2905.45454516,4189.72727231,3927.51515112,4428.2424238,12.3636363624,4228.87878746,12.3636363624,4840.36363588,8.2424242416,4498.30302985,2167.75757554,42.0,42.0,?
2017-06-01 16:50:48.864340,4541.57575712,4.1212121208,4222.69696927,4.1212121208,3926.48484809,160.727272711,3901.24242385,107.151515141,4279.36363594,4183.03030261,4457.60606016,3503.03030268,4221.15151473,2719.99999973,4343.75757532,2081.212121,4995.93939344,2905.45454516,4205.69696928,3927.51515112,4425.15151471,12.3636363624,4228.87878746,12.3636363624,4842.42424194,8.2424242416,4498.30302985,2167.75757554,42.0,42.0,?
2017-06-01 16:50:48.873314,4541.06060561,4.1212121208,4222.18181776,4.1212121208,3934.72727233,160.727272711,3903.30302991,107.151515141,4289.66666624,4183.03030261,4471.51515107,3503.03030268,4234.54545412,2719.99999973,4356.12121169,2081.212121,5000.57575708,2905.45454516,4213.424242,3927.51515112,4424.63636319,12.3636363624,4226.8181814,12.3636363624,4843.96969649,8.2424242416,4498.81818137,2167.75757554,42.0,42.0,?
2017-06-01 16:50:48.880484,4544.1515147,4.1212121208,4222.69696927,4.1212121208,3934.72727233,160.727272711,3899.18181779,107.151515141,4289.15151472,4183.03030261,4470.99999955,3503.03030268,4232.48484806,2719.99999973,4354.57575714,2081.212121,5006.24242374,2905.45454516,4207.75757534,3927.51515112,4424.12121168,12.3636363624,4225.78787837,12.3636363624,4841.39393891,8.2424242416,4496.75757531,2167.75757554,42.0,42.0,?
2017-06-01 16:50:48.891035,4545.18181773,4.1212121208,4224.75757534,4.1212121208,3929.06060567,160.727272711,3902.7878784,107.151515141,4287.60606018,4183.03030261,4465.33333289,3503.03030268,4227.84848443,2719.99999973,4350.96969653,2081.212121,5016.03030253,2905.45454516,4210.84848443,3927.51515112,4422.57575713,12.3636363624,4227.84848443,12.3636363624,4841.90909042,8.2424242416,4497.27272682,2167.75757554,42.0,42.0,?
2017-06-01 16:50:48.896188,4543.12121167,4.1212121208,4226.30302988,4.1212121208,3926.99999961,160.727272711,3901.75757537,107.151515141,4282.96969654,4183.03030261,4463.27272683,3503.03030268,4224.75757534,2719.99999973,4348.39393896,2081.212121,5010.36363586,2905.45454516,4217.03030261,3927.51515112,4424.12121168,12.3636363624,4229.39393897,12.3636363624,4842.42424194,8.2424242416,4495.72727228,2167.75757554,42.0,42.0,?
2017-06-01 16:50:48.902844,4542.09090864,4.1212121208,4224.75757534,4.1212121208,3930.60606021,160.727272711,3900.72727234,107.151515141,4279.36363594,4183.03030261,4466.36363592,3503.03030268,4228.36363594,2719.99999973,4346.84848441,2081.212121,5002.63636314,2905.45454516,4219.60606018,3927.51515112,4426.69696925,12.3636363624,4226.8181814,12.3636363624,4840.87878739,8.2424242416,4496.75757531,2167.75757554,42.0,42.0,?
2017-06-01 16:50:48.911608,4543.63636318,4.1212121208,4222.69696927,4.1212121208,3938.84848445,160.727272711,3910.51515112,107.151515141,4293.78787836,4183.03030261,4481.30302985,3503.03030268,4240.7272723,2719.99999973,4358.18181775,2081.212121,5013.96969647,2905.45454516,4228.36363594,3927.51515112,4426.69696925,12.3636363624,4225.78787837,12.3636363624,4840.87878739,8.2424242416,4503.96969652,2167.75757554,42.0,42.0,?
2017-06-01 16:50:48.919628,4541.57575712,4.1212121208,4222.69696927,4.1212121208,3941.93939355,160.727272711,3923.90909052,107.151515141,4313.36363593,4183.03030261,4495.21212076,3503.03030268,4245.87878745,2719.99999973,4368.48484805,2081.212121,5024.27272677,2905.45454516,4233.51515109,3927.51515112,4423.60606016,12.3636363624,4226.30302988,12.3636363624,4840.36363588,8.2424242416,4504.48484803,2167.75757554,42.0,42.0,?
2017-06-01 16:50:48.926668,4541.57575712,4.1212121208,4226.30302988,4.1212121208,3937.81818142,160.727272711,3926.99999961,107.151515141,4312.84848442,4183.03030261,4495.21212076,3503.03030268,4242.78787836,2719.99999973,4360.75757532,2081.212121,5020.15151465,2905.45454516,4226.30302988,3927.51515112,4424.12121168,12.3636363624,4226.8181814,12.3636363624,4840.87878739,8.2424242416,4500.36363591,2167.75757554,42.0,42.0,?
2017-06-01 16:50:48.935342,4543.63636318,4.1212121208,4223.7272723,4.1212121208,3937.30302991,160.727272711,3906.90909052,107.151515141,4294.81818139,4183.03030261,4489.03030258,3503.03030268,4237.63636321,2719.99999973,4351.48484805,2081.212121,5017.57575707,2905.45454516,4223.21212079,3927.51515112,4426.69696925,12.3636363624,4227.84848443,12.3636363624,4840.87878739,8.2424242416,4499.8484844,2167.75757554,42.0,42.0,?
2017-06-01 16:50:48.943114,4542.60606015,12.3636363624,4219.60606018,4.1212121208,3939.36363597,160.727272711,3892.4848481,107.151515141,4289.66666624,4183.03030261,4485.42424198,3503.03030268,4233.51515109,2719.99999973,4354.57575714,2081.212121,5021.69696919,2905.45454516,4228.87878746,3927.51515112,4426.69696925,12.3636363624,4228.87878746,12.3636363624,4838.81818133,8.2424242416,4501.39393894,2167.75757554,42.0,42.0,?
2017-06-01 16:50:48.950580,4543.12121167,12.3636363624,4223.7272723,12.3636363624,3946.06060567,160.727272711,3917.72727234,107.151515141,4305.12121169,4183.03030261,4487.48484804,3503.03030268,4237.1212117,2719.99999973,4359.72727229,2081.212121,5030.45454495,2905.45454516,4237.63636321,3927.51515112,4424.63636319,12.3636363624,4227.84848443,12.3636363624,4840.36363588,8.2424242416,4504.48484803,2167.75757554,42.0,42.0,?
2017-06-01 16:50:48.958326,4543.12121167,12.3636363624,4223.7272723,12.3636363624,3954.81818142,160.727272711,3941.42424203,107.151515141,4314.39393896,4183.03030261,4492.12121167,3503.03030268,4244.33333291,2719.99999973,4361.27272684,2081.212121,5038.69696919,2905.45454516,4245.36363594,3927.51515112,4424.63636319,12.3636363624,4227.33333291,12.3636363624,4840.36363588,8.2424242416,4504.48484803,2159.5151513,42.0,42.0,?
2017-06-01 16:50:48.966867,4541.57575712,12.3636363624,4221.66666624,12.3636363624,3951.72727233,156.60606059,3926.99999961,107.151515141,4302.0303026,4183.03030261,4491.09090864,3503.03030268,4241.75757533,2719.99999973,4357.15151472,2081.212121,5029.42424192,2905.45454516,4239.18181776,3927.51515112,4426.69696925,12.3636363624,4228.36363594,12.3636363624,4839.33333285,8.2424242416,4503.454545,2159.5151513,42.0,42.0,?
2017-06-01 16:50:48.977789,4542.60606015,12.3636363624,4225.78787837,12.3636363624,3943.48484809,156.60606059,3918.75757537,103.03030302,4299.45454502,4183.03030261,4488.51515107,3503.03030268,4236.60606018,2719.99999973,4357.15151472,2081.212121,5013.96969647,2905.45454516,4223.7272723,3927.51515112,4426.69696925,12.3636363624,4227.84848443,12.3636363624,4841.39393891,8.2424242416,4502.42424197,2159.5151513,42.0,42.0,?
2017-06-01 16:50:48.982481,4542.60606015,12.3636363624,4228.36363594,12.3636363624,3943.99999961,156.60606059,3933.18181779,103.03030302,4311.30302987,4183.03030261,4493.66666622,3503.03030268,4237.63636321,2719.99999973,4363.3333329,2081.212121,5015.51515101,2905.45454516,4217.54545412,3927.51515112,4426.18181774,12.3636363624,4228.87878746,12.3636363624,4843.45454497,8.2424242416,4500.87878743,2159.5151513,42.0,42.0,?
2017-06-01 16:50:48.989051,4542.60606015,12.3636363624,4225.27272685,12.3636363624,3948.63636324,156.60606059,3936.27272688,103.03030302,4314.39393896,4183.03030261,4501.39393894,3503.03030268,4238.15151473,2719.99999973,4364.36363593,2081.212121,5029.93939344,2905.45454516,4223.21212079,3927.51515112,4426.18181774,12.3636363624,4229.39393897,12.3636363624,4843.96969649,8.2424242416,4502.93939349,2159.5151513,42.0,42.0,?
2017-06-01 16:50:48.998677,4541.57575712,12.3636363624,4222.69696927,12.3636363624,3947.0909087,156.60606059,3927.51515112,103.03030302,4311.81818139,4183.03030261,4501.90909046,3503.03030268,4240.7272723,2732.36363609,4363.3333329,2081.212121,5037.15151465,2905.45454516,4229.39393897,3927.51515112,4425.15151471,12.3636363624,4227.33333291,12.3636363624,4841.90909042,8.2424242416,4503.96969652,2159.5151513,42.0,42.0,?
2017-06-01 16:50:49.006203,4541.57575712,12.3636363624,4222.69696927,12.3636363624,3945.54545415,156.60606059,3928.03030264,103.03030302,4313.87878745,4183.03030261,4500.87878743,3503.03030268,4242.27272685,2732.36363609,4366.42424199,2081.212121,5032.51515101,2905.45454516,4229.39393897,3927.51515112,4427.21212077,12.3636363624,4227.33333291,12.3636363624,4839.84848436,8.2424242416,4502.93939349,2159.5151513,42.0,42.0,?
2017-06-01 16:50:49.013134,4543.12121167,12.3636363624,4223.7272723,12.3636363624,3948.12121173,156.60606059,3934.72727233,103.03030302,4310.78787836,4183.03030261,4499.8484844,3503.03030268,4239.69696927,2732.36363609,4365.90909047,2081.212121,5030.96969647,2913.69696941,4226.30302988,3927.51515112,4426.18181774,12.3636363624,4228.36363594,12.3636363624,4838.81818133,8.2424242416,4501.39393894,2159.5151513,42.0,42.0,?
2017-06-01 16:50:49.022138,4543.63636318,12.3636363624,4223.21212079,12.3636363624,3938.84848445,156.60606059,3922.36363597,103.03030302,4295.3333329,4183.03030261,4483.87878743,3503.03030268,4226.8181814,2732.36363609,4355.09090866,2081.212121,5024.27272677,2913.69696941,4217.54545412,3923.393939,4425.66666622,12.3636363624,4226.8181814,12.3636363624,4838.30302982,8.2424242416,4495.72727228,2159.5151513,42.0,42.0,?
2017-06-01 16:50:49.029611,4546.21212076,12.3636363624,4224.24242382,12.3636363624,3930.0909087,156.60606059,3902.7878784,103.03030302,4292.75757533,4183.03030261,4470.48484804,3503.03030268,4209.8181814,2732.36363609,4340.66666623,2081.212121,5003.15151465,2913.69696941,4208.27272685,3923.393939,4430.30302986,8.2424242416,4226.8181814,12.3636363624,4841.39393891,8.2424242416,4495.21212076,2159.5151513,42.0,42.0,?
2017-06-01 16:50:49.035648,4545.18181773,12.3636363624,4224.75757534,12.3636363624,3942.96969658,156.60606059,3914.12121173,103.03030302,4308.21212078,4183.03030261,4481.30302985,3503.03030268,4213.93939352,2732.36363609,4341.18181775,2081.212121,4995.42424192,2913.69696941,4215.48484806,3923.393939,4429.78787834,8.2424242416,4228.36363594,12.3636363624,4843.45454497,8.2424242416,4500.87878743,2159.5151513,42.0,42.0,?
2017-06-01 16:50:49.045692,4544.1515147,12.3636363624,4223.21212079,12.3636363624,3959.45454506,156.60606059,3938.33333294,103.03030302,4314.90909048,4183.03030261,4494.69696925,3503.03030268,4229.39393897,2732.36363609,4355.60606017,2081.212121,5018.09090859,2913.69696941,4234.03030261,3923.393939,4426.18181774,8.2424242416,4228.87878746,12.3636363624,4840.36363588,4.1212121208,4503.454545,2159.5151513,42.0,42.0,?
2017-06-01 16:50:49.052723,4546.21212076,12.3636363624,4224.24242382,12.3636363624,3953.78787839,156.60606059,3934.21212082,103.03030302,4305.63636321,4183.03030261,4492.12121167,3503.03030268,4231.96969655,2732.36363609,4360.75757532,2081.212121,5034.06060556,2913.69696941,4237.1212117,3923.393939,4428.2424238,8.2424242416,4228.36363594,12.3636363624,4839.33333285,4.1212121208,4500.87878743,2159.5151513,42.0,42.0,?
2017-06-01 16:50:49.060074,4544.1515147,12.3636363624,4223.21212079,12.3636363624,3945.54545415,156.60606059,3924.93939355,103.03030302,4299.45454502,4183.03030261,4486.96969652,3503.03030268,4228.36363594,2732.36363609,4353.03030259,2081.212121,5026.33333283,2913.69696941,4228.87878746,3923.393939,4430.81818138,8.2424242416,4226.8181814,12.3636363624,4841.90909042,4.1212121208,4497.27272682,2159.5151513,42.0,42.0,?
2017-06-01 16:50:49.067666,4545.69696924,12.3636363624,4223.21212079,12.3636363624,3950.18181779,156.60606059,3929.06060567,103.03030302,4301.51515109,4183.03030261,4486.45454501,3503.03030268,4234.03030261,2732.36363609,4355.09090866,2081.212121,5025.3030298,2913.69696941,4230.93939352,3923.393939,4427.72727228,8.2424242416,4228.87878746,4.1212121208,4842.93939346,4.1212121208,4498.81818137,2159.5151513,42.0,42.0,?
2017-06-01 16:50:49.077348,4545.69696924,12.3636363624,4225.27272685,12.3636363624,3954.81818142,156.60606059,3928.54545415,103.03030302,4307.69696927,4183.03030261,4492.12121167,3503.03030268,4240.7272723,2732.36363609,4365.39393896,2081.212121,5037.15151465,2913.69696941,4235.06060564,3923.393939,4425.66666622,8.2424242416,4231.45454503,4.1212121208,4841.90909042,4.1212121208,4501.39393894,2159.5151513,42.0,42.0,?
2017-06-01 16:50:49.083200,4542.60606015,12.3636363624,4224.24242382,12.3636363624,3956.87878748,156.60606059,3931.63636324,103.03030302,4314.90909048,4183.03030261,4502.93939349,3503.03030268,4245.36363594,2732.36363609,4370.54545411,2081.212121,5038.69696919,2913.69696941,4238.66666624,3923.393939,4426.69696925,8.2424242416,4227.84848443,4.1212121208,4841.39393891,4.1212121208,4503.454545,2159.5151513,42.0,42.0,?
2017-06-01 16:50:49.090723,4546.21212076,12.3636363624,4224.75757534,12.3636363624,3948.63636324,156.60606059,3932.66666627,103.03030302,4308.21212078,4183.03030261,4498.30302985,3503.03030268,4243.30302988,2732.36363609,4367.45454502,2081.212121,5026.33333283,2913.69696941,4239.69696927,3923.393939,4426.18181774,8.2424242416,4225.78787837,4.1212121208,4843.45454497,4.1212121208,4503.454545,2159.5151513,42.0,42.0,?
2017-06-01 16:50:49.100454,4544.1515147,12.3636363624,4225.27272685,12.3636363624,3934.72727233,156.60606059,3908.45454506,103.03030302,4297.90909048,4183.03030261,4483.36363592,3503.03030268,4232.48484806,2732.36363609,4358.69696926,2081.212121,5020.66666616,2913.69696941,4232.99999958,3923.393939,4424.63636319,8.2424242416,4229.39393897,4.1212121208,4842.93939346,4.1212121208,4497.78787834,2159.5151513,42.0,42.0,?
2017-06-01 16:50:49.107190,4540.03030258,12.3636363624,4223.21212079,12.3636363624,3933.6969693,156.60606059,3891.96969658,103.03030302,4299.45454502,4183.03030261,4481.81818137,3503.03030268,4228.36363594,2732.36363609,4350.96969653,2081.212121,5021.18181768,2913.69696941,4223.7272723,3923.393939,4427.21212077,8.2424242416,4228.36363594,4.1212121208,4841.90909042,4.1212121208,4497.27272682,2159.5151513,42.0,42.0,?
