Timestamp,F3 Value,F3 Quality,FC5 Value,FC5 Quality,F7 Value,F7 Quality,T7 Value,T7 Quality,P7 Value,P7 Quality,O1 Value,O1 Quality,O2 Value,O2 Quality,P8 Value,P8 Quality,T8 Value,T8 Quality,F8 Value,F8 Quality,AF4 Value,AF4 Quality,FC6 Value,FC6 Quality,F4 Value,F4 Quality,AF3 Value,AF3 Quality,X Value,Y Value,Z Value
2017-06-01 18:07:33.563999,4542.09090864,0,4219.09090867,0.0,3913.60606021,0,3894.03030264,0,4259.27272685,0,4450.90909046,0,4204.66666625,0,4322.12121169,0,4957.30302981,0,4161.90909049,0,4430.30302986,0,4209.30302988,0,4840.87878739,0,4438.03030259,0,42.0,42.0,?
2017-06-01 18:07:33.566916,4542.09090864,0,4217.03030261,8.2424242416,3916.18181779,0,3912.06060567,0,4274.7272723,0,4427.21212077,0,4173.75757534,0,4332.93939351,0,4972.75757526,0,3991.90909051,0,4427.21212077,0,4201.57575716,0,4840.36363588,0,4366.9393935,0,42.0,42.0,?
2017-06-01 18:07:33.569948,4538.99999955,0,4217.54545412,8.2424242416,3916.18181779,0,3919.27272688,0,4277.30302988,0,4427.72727228,0,4172.21212079,0,4325.21212078,0,4963.48484799,0,3985.21212081,0,4426.69696925,0,4204.15151473,0,4840.36363588,0,4363.84848441,3836.84848446,42.0,42.0,?
2017-06-01 18:07:33.574242,4542.09090864,0,4219.09090867,8.2424242416,3917.72727234,0.0,3892.4848481,0,4278.84848442,0,4426.18181774,0,4176.33333292,0,4325.21212078,0,4971.21212072,0,3987.27272687,0,4428.75757531,0,4203.63636322,0,4839.33333285,0,4366.42424199,3836.84848446,42.0,42.0,?
2017-06-01 18:07:33.576633,4538.48484803,0,4213.93939352,8.2424242416,3914.12121173,0.0,3895.57575719,4030.54545414,4281.93939351,0,4425.15151471,0,4180.45454504,0,4337.06060563,0,4987.6969692,0,3995.51515112,0,4431.33333289,0,4202.60606019,0,4838.30302982,0,4369.51515108,3836.84848446,42.0,42.0,?
2017-06-01 18:07:33.579417,4546.21212076,0,4219.09090867,8.2424242416,3916.69696931,0.0,3903.81818143,4030.54545414,4285.0303026,164.848484832,4430.30302986,0,4187.15151473,0,4346.84848441,0,5001.60606011,0,3994.48484809,0,4429.27272683,0,4202.60606019,0,4840.36363588,0,4366.42424199,3836.84848446,42.0,42.0,?
2017-06-01 18:07:33.584229,4542.60606015,0,4220.63636321,8.2424242416,3919.27272688,0.0,3885.27272688,4030.54545414,4285.54545412,164.848484832,4432.87878744,712.969696898,4193.84848443,0,4353.54545411,0,5001.60606011,0,4000.66666627,0,4426.18181774,0,4200.54545413,0,4839.84848436,0,4373.12121168,3836.84848446,42.0,42.0,?
2017-06-01 18:07:33.589875,4535.39393894,0,4218.57575715,8.2424242416,3919.7878784,0.0,3888.36363597,4030.54545414,4280.39393897,164.848484832,4428.75757531,712.969696898,4191.78787837,531.636363583,4352.51515108,0,4983.06060556,0,4000.66666627,0,4428.75757531,0,4199.5151511,0,4839.33333285,0,4380.3333329,3836.84848446,42.0,42.0,?
2017-06-01 18:07:33.593616,4541.06060561,0,4221.15151473,8.2424242416,3918.75757537,0.0,3911.03030264,4030.54545414,4278.84848442,164.848484832,4427.72727228,712.969696898,4186.63636322,531.636363583,4342.72727229,1858.66666648,4964.51515102,0,3990.36363596,0,4427.72727228,0,4202.09090867,0,4838.81818133,0,4377.75757532,3836.84848446,42.0,42.0,?
2017-06-01 18:07:33.596723,4535.90909046,0,4217.54545412,8.2424242416,3915.15151476,0.0,3917.72727234,4030.54545414,4289.15151472,164.848484832,4434.42424198,712.969696898,4183.54545413,531.636363583,4339.6363632,1858.66666648,4973.78787829,2884.84848456,4002.72727233,0,4428.75757531,0,4204.15151473,0,4839.84848436,0,4374.66666623,3836.84848446,42.0,42.0,?
2017-06-01 18:07:33.600747,4543.12121167,0,4218.57575715,8.2424242416,3918.24242385,0.0,3901.75757537,4030.54545414,4291.21212078,164.848484832,4435.45454501,712.969696898,4180.45454504,531.636363583,4337.06060563,1858.66666648,4993.36363586,2884.84848456,4002.72727233,3618.42424206,4430.30302986,0,4201.06060564,0,4841.90909042,0,4370.03030259,3836.84848446,42.0,42.0,?
2017-06-01 18:07:33.603943,4543.12121167,0,4218.57575715,8.2424242416,3917.21212082,0.0,3889.90909052,4030.54545414,4287.09090866,164.848484832,4428.75757531,712.969696898,4183.03030261,531.636363583,4330.36363593,1858.66666648,4991.81818132,2884.84848456,3984.18181778,3618.42424206,4429.27272683,4.1212121208,4201.06060564,0,4840.87878739,0,4367.45454502,3836.84848446,42.0,42.0,?
2017-06-01 18:07:33.606554,4534.36363591,0,4217.03030261,8.2424242416,3913.60606021,0.0,3895.57575719,4030.54545414,4288.63636321,164.848484832,4427.21212077,712.969696898,4185.60606019,531.636363583,4334.48484805,1858.66666648,4979.96969647,2884.84848456,3987.78787839,3618.42424206,4430.30302986,4.1212121208,4201.06060564,8.2424242416,4842.93939346,0,4371.57575714,3836.84848446,42.0,42.0,?
2017-06-01 18:07:33.609404,4542.09090864,0,4218.57575715,8.2424242416,3917.21212082,0.0,3895.57575719,4030.54545414,4287.60606018,164.848484832,4428.75757531,712.969696898,4178.90909049,531.636363583,4340.66666623,1858.66666648,4975.84848435,2884.84848456,3992.42424203,3618.42424206,4429.27272683,4.1212121208,4196.424242,8.2424242416,4842.42424194,4.1212121208,4366.9393935,3836.84848446,42.0,42.0,?
2017-06-01 18:07:33.612436,4538.48484803,0,4217.03030261,8.2424242416,3915.66666628,0.0,3890.42424204,4030.54545414,4279.36363594,164.848484832,4427.72727228,712.969696898,4176.33333292,531.636363583,4333.96969654,1858.66666648,4973.27272678,2884.84848456,3981.09090869,3622.54545418,4431.33333289,4.1212121208,4198.48484806,8.2424242416,4837.7878783,4.1212121208,4361.27272684,3836.84848446,42.0,42.0,?
2017-06-01 18:07:33.616395,4541.57575712,0,4219.09090867,8.2424242416,3915.15151476,0.0,3890.93939355,4030.54545414,4270.60606018,164.848484832,4428.2424238,712.969696898,4181.99999958,531.636363583,4327.78787836,1858.66666648,4965.03030253,2884.84848456,3975.93939354,3622.54545418,4430.30302986,0.0,4203.63636322,8.2424242416,4837.27272679,4.1212121208,4363.84848441,3836.84848446,42.0,42.0,?
2017-06-01 18:07:33.624439,4542.60606015,0,4218.57575715,8.2424242416,3917.72727234,0.0,3892.4848481,4030.54545414,4276.27272685,164.848484832,4428.75757531,712.969696898,4187.15151473,531.636363583,4341.69696926,1858.66666648,4982.03030253,2884.84848456,3992.93939354,3622.54545418,4426.69696925,0.0,4201.57575716,4.1212121208,4838.81818133,4.1212121208,4372.09090865,3836.84848446,42.0,42.0,?
2017-06-01 18:07:33.633117,4531.78787833,0,4217.03030261,8.2424242416,3916.69696931,0.0,3891.45454507,4030.54545414,4283.99999957,164.848484832,4426.18181774,712.969696898,4188.18181776,531.636363583,4354.57575714,1858.66666648,5005.21212071,2884.84848456,4013.03030263,3622.54545418,4430.30302986,0.0,4198.99999958,4.1212121208,4839.84848436,4.1212121208,4377.75757532,3836.84848446,42.0,42.0,?
2017-06-01 18:07:33.641426,4538.48484803,0,4219.60606018,8.2424242416,3916.18181779,0.0,3898.66666628,4030.54545414,4279.36363594,164.848484832,4425.66666622,712.969696898,4183.03030261,531.636363583,4341.69696926,1858.66666648,4993.36363586,2884.84848456,4010.45454505,3622.54545418,4429.78787834,0.0,4199.5151511,4.1212121208,4838.30302982,4.1212121208,4375.69696926,3836.84848446,42.0,42.0,?
2017-06-01 18:07:33.648995,4538.99999955,0,4216.51515109,8.2424242416,3914.12121173,0.0,3899.18181779,4030.54545414,4275.24242381,164.848484832,4425.15151471,712.969696898,4174.27272686,531.636363583,4330.36363593,1858.66666648,4979.96969647,2884.84848456,3992.42424203,3622.54545418,4428.2424238,0.0,4202.60606019,4.1212121208,4838.30302982,4.1212121208,4374.15151471,3836.84848446,42.0,42.0,?
2017-06-01 18:07:33.655397,4537.96969652,0,4215.99999958,8.2424242416,3917.21212082,0.0,3879.60606022,4030.54545414,4272.15151472,164.848484832,4422.06060562,712.969696898,4170.15151473,531.636363583,4332.93939351,1858.66666648,4979.96969647,2884.84848456,3983.15151475,3622.54545418,4427.72727228,0.0,4203.1212117,4.1212121208,4840.87878739,4.1212121208,4377.75757532,3836.84848446,42.0,42.0,?
2017-06-01 18:07:33.665627,4540.03030258,0,4217.03030261,8.2424242416,3919.27272688,0.0,3886.30302991,4030.54545414,4270.09090866,164.848484832,4423.09090865,712.969696898,4172.21212079,531.636363583,4327.27272684,1858.66666648,4978.42424193,2884.84848456,3993.96969657,3622.54545418,4426.69696925,0.0,4199.5151511,4.1212121208,4840.36363588,4.1212121208,4381.87878744,3836.84848446,42.0,42.0,?
2017-06-01 18:07:33.674503,4541.57575712,0,4220.1212117,8.2424242416,3917.21212082,0.0,3887.84848446,4030.54545414,4282.45454503,164.848484832,4426.18181774,712.969696898,4185.09090867,531.636363583,4332.93939351,1858.66666648,4967.60606011,2884.84848456,3993.96969657,3622.54545418,4427.21212077,0.0,4202.09090867,4.1212121208,4839.33333285,4.1212121208,4380.3333329,3836.84848446,42.0,42.0,?
2017-06-01 18:07:33.681372,4541.57575712,0,4220.1212117,8.2424242416,3917.21212082,0.0,3887.84848446,4030.54545414,4282.45454503,164.848484832,4426.18181774,712.969696898,4185.09090867,531.636363583,4332.93939351,1858.66666648,4967.60606011,2884.84848456,3993.96969657,3622.54545418,4427.21212077,0.0,4202.09090867,4.1212121208,4839.33333285,4.1212121208,4380.3333329,3836.84848446,42.0,42.0,?
2017-06-01 18:07:33.691312,4537.96969652,0,4219.60606018,8.2424242416,3918.24242385,0.0,3875.99999961,4030.54545414,4270.60606018,164.848484832,4421.5454541,712.969696898,4181.48484807,531.636363583,4342.21212078,1858.66666648,4978.42424193,2884.84848456,3992.93939354,3622.54545418,4426.69696925,0.0,4201.57575716,4.1212121208,4839.84848436,4.1212121208,4378.27272683,3836.84848446,42.0,42.0,?
2017-06-01 18:07:33.696094,4537.454545,0,4218.06060564,8.2424242416,3917.21212082,0.0,3895.06060567,4030.54545414,4263.39393897,164.848484832,4417.42424198,712.969696898,4174.78787837,531.636363583,4334.48484805,1858.66666648,4992.84848435,2884.84848456,4004.78787839,3622.54545418,4429.78787834,0.0,4198.48484806,4.1212121208,4839.84848436,4.1212121208,4373.6363632,3836.84848446,42.0,42.0,?
2017-06-01 18:07:33.702420,4541.06060561,0,4220.1212117,8.2424242416,3915.66666628,0.0,3907.93939355,4030.54545414,4267.51515109,164.848484832,4420.51515107,712.969696898,4172.72727231,531.636363583,4327.78787836,1858.66666648,4988.21212071,2884.84848456,4005.3030299,3622.54545418,4428.2424238,0.0,4198.99999958,4.1212121208,4837.27272679,4.1212121208,4371.57575714,3836.84848446,42.0,42.0,?
2017-06-01 18:07:33.714722,4531.27272682,0,4217.03030261,8.2424242416,3915.15151476,0.0,3898.66666628,4030.54545414,4272.15151472,164.848484832,4423.60606016,712.969696898,4175.30302989,531.636363583,4333.96969654,1858.66666648,4983.06060556,2884.84848456,4000.66666627,3622.54545418,4429.27272683,0.0,4201.57575716,4.1212121208,4839.33333285,4.1212121208,4375.69696926,3836.84848446,42.0,42.0,?
2017-06-01 18:07:33.720087,4538.48484803,0,4217.54545412,8.2424242416,3918.75757537,0.0,3883.72727234,4030.54545414,4266.48484806,164.848484832,4424.63636319,712.969696898,4173.75757534,531.636363583,4331.90909048,1858.66666648,4969.66666617,2884.84848456,3991.39393899,3622.54545418,4431.84848441,0.0,4200.54545413,4.1212121208,4840.87878739,4.1212121208,4372.09090865,3836.84848446,42.0,42.0,?
2017-06-01 18:07:33.726580,4540.54545409,0,4214.96969655,8.2424242416,3914.12121173,0.0,3885.27272688,4030.54545414,4269.06060563,164.848484832,4426.18181774,712.969696898,4176.33333292,531.636363583,4334.48484805,1858.66666648,4965.03030253,2884.84848456,3988.3030299,3622.54545418,4430.81818138,0.0,4201.57575716,4.1212121208,4838.30302982,4.1212121208,4371.57575714,3836.84848446,42.0,42.0,?
2017-06-01 18:07:33.735360,4535.39393894,0,4218.57575715,8.2424242416,3913.0909087,0.0,3904.33333294,4030.54545414,4281.93939351,164.848484832,4427.72727228,712.969696898,4187.15151473,531.636363583,4343.24242381,1858.66666648,4990.27272677,2884.84848456,4000.15151475,3622.54545418,4430.30302986,0.0,4198.99999958,4.1212121208,4840.87878739,4.1212121208,4382.90909047,3836.84848446,42.0,42.0,?
2017-06-01 18:07:33.745123,4539.51515106,0,4223.21212079,8.2424242416,3919.7878784,0.0,3912.06060567,4030.54545414,4283.48484806,164.848484832,4428.2424238,712.969696898,4188.18181776,531.636363583,4332.93939351,1858.66666648,4989.24242374,2884.84848456,3996.54545415,3622.54545418,4427.72727228,0.0,4194.87878746,4.1212121208,4842.93939346,4.1212121208,4379.30302987,3836.84848446,42.0,42.0,?
2017-06-01 18:07:33.750606,4536.42424197,0,4216.51515109,8.2424242416,3918.24242385,0.0,3884.24242385,4030.54545414,4279.36363594,164.848484832,4429.27272683,712.969696898,4179.93939352,531.636363583,4329.84848442,1858.66666648,4956.27272678,2884.84848456,3985.21212081,3622.54545418,4429.78787834,0.0,4199.5151511,4.1212121208,4840.36363588,4.1212121208,4364.87878744,3836.84848446,42.0,42.0,?
2017-06-01 18:07:33.760289,4543.12121167,0,4218.57575715,8.2424242416,3916.69696931,0.0,3861.06060567,4030.54545414,4277.81818139,164.848484832,4429.78787834,712.969696898,4177.87878746,531.636363583,4341.69696926,1858.66666648,4962.45454496,2884.84848456,3993.45454506,3622.54545418,4430.81818138,0.0,4204.15151473,4.1212121208,4839.84848436,4.1212121208,4362.30302987,3836.84848446,42.0,42.0,?
2017-06-01 18:07:33.766315,4540.54545409,0,4219.60606018,8.2424242416,3915.15151476,0.0,3884.24242385,4030.54545414,4277.30302988,164.848484832,4424.63636319,712.969696898,4184.06060564,531.636363583,4341.69696926,1858.66666648,4994.39393889,2884.84848456,4002.72727233,3622.54545418,4427.72727228,0.0,4200.03030261,4.1212121208,4841.90909042,4.1212121208,4367.96969653,3836.84848446,42.0,42.0,?
2017-06-01 18:07:33.778883,4533.8484844,0,4218.06060564,8.2424242416,3915.15151476,0.0,3906.393939,4030.54545414,4279.36363594,164.848484832,4424.12121168,712.969696898,4186.1212117,531.636363583,4333.96969654,1858.66666648,4984.09090859,2884.84848456,3994.9999996,3622.54545418,4428.2424238,0.0,4198.99999958,4.1212121208,4844.484848,4.1212121208,4371.06060562,3836.84848446,42.0,42.0,?
2017-06-01 18:07:33.785218,4544.66666621,0,4221.66666624,8.2424242416,3917.72727234,0.0,3891.96969658,4030.54545414,4280.39393897,164.848484832,4430.30302986,712.969696898,4180.45454504,531.636363583,4335.51515108,1858.66666648,4968.12121162,2884.84848456,3989.84848445,3622.54545418,4426.18181774,0.0,4201.57575716,4.1212121208,4840.87878739,4.1212121208,4372.09090865,3836.84848446,42.0,42.0,?
2017-06-01 18:07:33.791542,4540.03030258,0,4218.06060564,8.2424242416,3916.69696931,0.0,3891.45454507,4030.54545414,4272.15151472,164.848484832,4427.72727228,712.969696898,4175.8181814,531.636363583,4336.54545411,1858.66666648,4975.84848435,2884.84848456,3990.36363596,3622.54545418,4428.2424238,0.0,4201.06060564,4.1212121208,4836.75757527,4.1212121208,4369.51515108,3836.84848446,42.0,42.0,?
2017-06-01 18:07:33.796436,4541.06060561,0,4218.06060564,8.2424242416,3919.27272688,0.0,3901.24242385,4030.54545414,4263.39393897,164.848484832,4418.96969653,712.969696898,4174.27272686,531.636363583,4331.90909048,1858.66666648,4970.6969692,2884.84848456,3981.09090869,3622.54545418,4430.30302986,0.0,4199.5151511,4.1212121208,4839.84848436,4.1212121208,4360.24242381,3836.84848446,42.0,42.0,?
2017-06-01 18:07:33.806810,4543.63636318,0,4220.63636321,8.2424242416,3918.75757537,0.0,3882.69696931,4030.54545414,4272.15151472,164.848484832,4419.48484804,712.969696898,4175.8181814,531.636363583,4328.81818139,1858.66666648,4975.33333284,2884.84848456,3986.24242384,3622.54545418,4427.21212077,0.0,4201.06060564,4.1212121208,4839.84848436,4.1212121208,4361.27272684,3836.84848446,42.0,42.0,?
2017-06-01 18:07:33.813176,4538.99999955,0,4220.63636321,8.2424242416,3914.63636324,0.0,3870.84848446,4030.54545414,4279.36363594,164.848484832,4424.63636319,712.969696898,4176.33333292,531.636363583,4323.66666623,1858.66666648,4987.18181768,2884.84848456,4005.81818142,3622.54545418,4428.2424238,0.0,4200.03030261,4.1212121208,4837.7878783,4.1212121208,4369.51515108,3836.84848446,42.0,42.0,?
2017-06-01 18:07:33.823080,4544.1515147,0,4220.63636321,8.2424242416,3916.69696931,0.0,3885.7878784,4030.54545414,4272.66666624,164.848484832,4424.63636319,712.969696898,4174.78787837,531.636363583,4327.78787836,1858.66666648,4969.66666617,2884.84848456,4008.39393899,3622.54545418,4427.21212077,0.0,4198.48484806,4.1212121208,4838.81818133,4.1212121208,4372.09090865,3836.84848446,42.0,42.0,?
2017-06-01 18:07:33.828088,4537.96969652,0,4217.03030261,8.2424242416,3917.72727234,0.0,3896.0909087,4030.54545414,4273.18181775,164.848484832,4424.12121168,712.969696898,4176.84848443,531.636363583,4342.21212078,1858.66666648,4967.60606011,2884.84848456,3994.9999996,3622.54545418,4426.69696925,0.0,4202.60606019,4.1212121208,4839.84848436,4.1212121208,4375.18181774,3836.84848446,42.0,42.0,?
2017-06-01 18:07:33.835437,4538.99999955,0,4219.09090867,8.2424242416,3919.27272688,0.0,3888.87878749,4030.54545414,4276.27272685,164.848484832,4425.66666622,712.969696898,4182.5151511,531.636363583,4342.21212078,1858.66666648,4988.21212071,2884.84848456,3995.51515112,3622.54545418,4427.72727228,0.0,4204.15151473,4.1212121208,4838.30302982,4.1212121208,4374.66666623,3836.84848446,42.0,42.0,?
2017-06-01 18:07:33.843810,4541.57575712,0,4219.09090867,8.2424242416,3917.72727234,0.0,3883.21212082,4030.54545414,4276.78787836,164.848484832,4424.12121168,712.969696898,4184.57575716,531.636363583,4334.99999957,1858.66666648,4978.42424193,2884.84848456,4013.03030263,3622.54545418,4427.72727228,0.0,4198.99999958,4.1212121208,4835.72727224,4.1212121208,4372.60606017,3836.84848446,42.0,42.0,?
2017-06-01 18:07:33.854727,4532.81818136,0,4216.51515109,8.2424242416,3914.12121173,0.0,3883.72727234,4030.54545414,4280.90909048,164.848484832,4423.09090865,712.969696898,4181.48484807,531.636363583,4338.09090866,1858.66666648,4977.3939389,2884.84848456,4014.57575717,3622.54545418,4430.30302986,0.0,4201.57575716,4.1212121208,4839.84848436,4.1212121208,4373.12121168,3836.84848446,42.0,42.0,?
2017-06-01 18:07:33.860993,4539.51515106,0,4220.1212117,8.2424242416,3918.24242385,0.0,3882.69696931,4030.54545414,4272.15151472,164.848484832,4425.66666622,712.969696898,4177.36363595,531.636363583,4338.60606017,1858.66666648,4990.27272677,2884.84848456,3999.12121172,3622.54545418,4429.78787834,0.0,4204.66666625,4.1212121208,4843.96969649,4.1212121208,4373.6363632,3836.84848446,42.0,42.0,?
2017-06-01 18:07:33.867235,4538.99999955,0,4218.06060564,8.2424242416,3916.18181779,0.0,3892.99999961,4030.54545414,4261.84848442,164.848484832,4425.15151471,712.969696898,4179.93939352,531.636363583,4337.57575714,1858.66666648,4974.81818132,2884.84848456,4010.96969657,3622.54545418,4432.36363592,0.0,4202.60606019,4.1212121208,4841.39393891,4.1212121208,4378.78787835,3836.84848446,42.0,42.0,?
2017-06-01 18:07:33.874717,4540.03030258,0,4218.57575715,8.2424242416,3915.15151476,0.0,3903.81818143,4030.54545414,4274.21212078,164.848484832,4425.66666622,712.969696898,4187.66666625,531.636363583,4340.15151472,1858.66666648,4976.87878738,2884.84848456,4027.96969657,3622.54545418,4432.36363592,0.0,4201.57575716,4.1212121208,4840.36363588,4.1212121208,4384.96969653,3836.84848446,42.0,42.0,?
2017-06-01 18:07:33.884200,4543.12121167,0,4220.63636321,8.2424242416,3919.7878784,0.0,3897.12121173,4030.54545414,4291.21212078,164.848484832,4427.21212077,712.969696898,4191.27272685,531.636363583,4343.24242381,1858.66666648,5008.3030298,2884.84848456,4014.06060566,3622.54545418,4426.69696925,0.0,4201.57575716,4.1212121208,4839.84848436,4.1212121208,4383.9393935,3836.84848446,42.0,42.0,?
2017-06-01 18:07:33.891361,4534.36363591,0,4216.51515109,8.2424242416,3916.18181779,0.0,3884.75757537,4030.54545414,4286.57575715,164.848484832,4425.66666622,712.969696898,4188.69696928,531.636363583,4344.27272684,1858.66666648,5010.87878738,2884.84848456,4000.66666627,3622.54545418,4428.2424238,0.0,4201.06060564,4.1212121208,4840.36363588,4.1212121208,4375.18181774,3836.84848446,42.0,42.0,?
2017-06-01 18:07:33.898610,4542.09090864,0,4220.63636321,8.2424242416,3915.15151476,0.0,3875.4848481,4030.54545414,4271.63636321,164.848484832,4424.63636319,712.969696898,4182.5151511,531.636363583,4336.54545411,1858.66666648,4990.27272677,2884.84848456,4006.33333293,3622.54545418,4430.30302986,0.0,4202.09090867,4.1212121208,4839.84848436,4.1212121208,4368.48484805,3836.84848446,42.0,42.0,?
2017-06-01 18:07:33.908615,4541.57575712,0,4219.60606018,8.2424242416,3917.72727234,0.0,3879.0909087,4030.54545414,4268.0303026,164.848484832,4423.09090865,712.969696898,4175.30302989,531.636363583,4331.90909048,1858.66666648,4970.6969692,2884.84848456,4007.87878748,3622.54545418,4429.27272683,0.0,4201.06060564,4.1212121208,4837.27272679,4.1212121208,4372.09090865,3836.84848446,42.0,42.0,?
2017-06-01 18:07:33.913462,4538.48484803,0,4215.99999958,8.2424242416,3918.24242385,0.0,3892.99999961,4030.54545414,4268.54545412,164.848484832,4422.06060562,712.969696898,4168.60606019,531.636363583,4327.78787836,1858.66666648,4948.54545405,2884.84848456,3999.63636324,3622.54545418,4429.27272683,0.0,4196.93939352,4.1212121208,4838.81818133,4.1212121208,4374.15151471,3836.84848446,42.0,42.0,?
2017-06-01 18:07:33.921460,4541.57575712,0,4217.54545412,8.2424242416,3915.15151476,0.0,3897.63636325,4030.54545414,4278.33333291,164.848484832,4424.12121168,712.969696898,4169.1212117,531.636363583,4323.15151472,1858.66666648,4963.48484799,2884.84848456,4005.3030299,3622.54545418,4426.18181774,0.0,4196.424242,4.1212121208,4838.30302982,4.1212121208,4369.51515108,3836.84848446,42.0,42.0,?
2017-06-01 18:07:33.930135,4534.36363591,0,4217.03030261,8.2424242416,3913.0909087,0.0,3896.60606022,4030.54545414,4287.60606018,164.848484832,4427.21212077,712.969696898,4179.42424201,531.636363583,4332.93939351,1858.66666648,4992.33333283,2884.84848456,4017.66666626,3622.54545418,4427.72727228,0.0,4201.06060564,4.1212121208,4839.33333285,4.1212121208,4377.2424238,3836.84848446,42.0,42.0,?
2017-06-01 18:07:33.937404,4541.57575712,0,4219.60606018,8.2424242416,3918.24242385,0.0,3900.21212082,4030.54545414,4279.36363594,164.848484832,4429.27272683,712.969696898,4184.06060564,531.636363583,4340.66666623,1858.66666648,4980.48484799,2884.84848456,4008.39393899,3622.54545418,4428.2424238,0.0,4201.06060564,4.1212121208,4842.93939346,4.1212121208,4384.45454502,3836.84848446,42.0,42.0,?
2017-06-01 18:07:33.947437,4542.09090864,0,4220.1212117,8.2424242416,3917.72727234,0.0,3900.72727234,4030.54545414,4276.78787836,164.848484832,4428.2424238,712.969696898,4181.99999958,531.636363583,4334.99999957,1858.66666648,4984.09090859,2884.84848456,4007.87878748,3622.54545418,4426.69696925,0.0,4200.03030261,4.1212121208,4841.39393891,4.1212121208,4383.9393935,3836.84848446,42.0,42.0,?
2017-06-01 18:07:33.953883,4534.87878743,0,4221.15151473,8.2424242416,3915.66666628,0.0,3893.51515113,4030.54545414,4276.78787836,164.848484832,4424.12121168,712.969696898,4180.96969655,531.636363583,4327.27272684,1858.66666648,4996.96969647,2884.84848456,4015.09090869,3622.54545418,4425.15151471,0.0,4199.5151511,4.1212121208,4840.87878739,4.1212121208,4383.42424199,3836.84848446,42.0,42.0,?
2017-06-01 18:07:33.962613,4541.06060561,0,4220.1212117,8.2424242416,3918.75757537,0.0,3886.81818143,4030.54545414,4269.57575715,164.848484832,4423.60606016,712.969696898,4174.27272686,531.636363583,4324.18181775,1858.66666648,4968.63636314,2884.84848456,4005.81818142,3622.54545418,4422.06060562,0.0,4197.96969655,4.1212121208,4841.39393891,4.1212121208,4379.81818138,3836.84848446,42.0,42.0,?
2017-06-01 18:07:33.969360,4535.90909046,0,4214.45454503,8.2424242416,3917.72727234,0.0,3884.24242385,4030.54545414,4271.63636321,164.848484832,4426.18181774,712.969696898,4171.18181776,531.636363583,4332.93939351,1858.66666648,4961.42424193,2884.84848456,4004.78787839,3622.54545418,4426.69696925,0.0,4200.03030261,4.1212121208,4839.33333285,4.1212121208,4378.27272683,3836.84848446,42.0,42.0,?
2017-06-01 18:07:33.976505,4538.99999955,0,4218.57575715,8.2424242416,3917.21212082,0.0,3883.21212082,4030.54545414,4277.30302988,164.848484832,4424.63636319,712.969696898,4179.42424201,531.636363583,4339.12121169,1858.66666648,4991.3030298,2884.84848456,4013.03030263,3622.54545418,4429.78787834,0.0,4202.60606019,4.1212121208,4837.7878783,4.1212121208,4380.3333329,3836.84848446,42.0,42.0,?
2017-06-01 18:07:33.984437,4542.09090864,0,4220.1212117,8.2424242416,3917.21212082,0.0,3891.96969658,4030.54545414,4281.424242,164.848484832,4424.63636319,712.969696898,4185.09090867,531.636363583,4336.0303026,1858.66666648,4993.36363586,2884.84848456,4017.66666626,3622.54545418,4426.18181774,0.0,4200.03030261,4.1212121208,4837.27272679,4.1212121208,4385.48484805,3836.84848446,42.0,42.0,?
2017-06-01 18:07:33.994641,4537.454545,0,4215.99999958,8.2424242416,3915.15151476,0.0,3907.42424203,4030.54545414,4283.99999957,164.848484832,4425.15151471,712.969696898,4186.1212117,531.636363583,4333.45454502,1858.66666648,4976.87878738,2884.84848456,4022.3030299,3622.54545418,4427.21212077,0.0,4199.5151511,4.1212121208,4839.84848436,4.1212121208,4385.99999956,3836.84848446,42.0,42.0,?
2017-06-01 18:07:34.000408,4543.63636318,0,4217.54545412,8.2424242416,3916.69696931,0.0,3905.36363597,4030.54545414,4277.30302988,164.848484832,4421.03030259,712.969696898,4187.66666625,531.636363583,4336.0303026,1858.66666648,4984.09090859,2884.84848456,4003.24242384,3622.54545418,4427.72727228,0.0,4201.06060564,4.1212121208,4840.36363588,4.1212121208,4383.9393935,3836.84848446,42.0,42.0,?
2017-06-01 18:07:34.008786,4538.99999955,4.1212121208,4217.03030261,8.2424242416,3917.72727234,0.0,3892.99999961,4030.54545414,4274.21212078,164.848484832,4418.45454501,712.969696898,4190.75757534,531.636363583,4345.81818138,1858.66666648,5009.33333283,2884.84848456,3970.27272688,3622.54545418,4430.30302986,0.0,4201.57575716,4.1212121208,4838.30302982,4.1212121208,4390.6363632,3836.84848446,42.0,42.0,?
2017-06-01 18:07:34.016417,4541.06060561,4.1212121208,4221.15151473,12.3636363624,3918.75757537,0.0,3887.33333294,4030.54545414,4278.33333291,164.848484832,4423.60606016,712.969696898,4188.69696928,531.636363583,4348.39393896,1858.66666648,4999.54545405,2884.84848456,3960.48484809,3622.54545418,4430.81818138,0.0,4202.09090867,4.1212121208,4839.33333285,4.1212121208,4391.66666623,3836.84848446,42.0,42.0,?
2017-06-01 18:07:34.025102,4545.69696924,4.1212121208,4222.18181776,12.3636363624,3915.66666628,0.0,3886.30302991,4030.54545414,4279.36363594,164.848484832,4426.69696925,712.969696898,4182.5151511,531.636363583,4343.24242381,1858.66666648,4973.27272678,2884.84848456,3966.66666627,3622.54545418,4426.18181774,0.0,4201.06060564,4.1212121208,4838.30302982,4.1212121208,4380.84848441,3828.60606022,42.0,42.0,?
2017-06-01 18:07:34.031551,4538.99999955,4.1212121208,4215.48484806,12.3636363624,3915.15151476,12.3636363624,3892.4848481,4030.54545414,4275.75757533,164.848484832,4425.66666622,712.969696898,4183.54545413,531.636363583,4340.66666623,1858.66666648,4987.18181768,2884.84848456,3973.36363597,3622.54545418,4427.72727228,0.0,4198.99999958,4.1212121208,4837.7878783,4.1212121208,4374.15151471,3828.60606022,42.0,42.0,?
2017-06-01 18:07:34.041529,4543.63636318,4.1212121208,4217.54545412,12.3636363624,3920.81818143,12.3636363624,3899.18181779,4022.3030299,4274.7272723,164.848484832,4428.2424238,712.969696898,4186.1212117,531.636363583,4339.6363632,1858.66666648,5001.60606011,2884.84848456,3983.15151475,3622.54545418,4429.27272683,0.0,4198.48484806,4.1212121208,4839.84848436,4.1212121208,4375.18181774,3828.60606022,42.0,42.0,?
2017-06-01 18:07:34.046667,4539.51515106,4.1212121208,4218.57575715,12.3636363624,3916.69696931,12.3636363624,3898.66666628,4022.3030299,4278.84848442,168.969696953,4426.69696925,712.969696898,4184.06060564,531.636363583,4337.57575714,1858.66666648,4978.93939344,2884.84848456,3994.9999996,3622.54545418,4426.69696925,0.0,4200.54545413,4.1212121208,4841.39393891,4.1212121208,4375.69696926,3828.60606022,42.0,42.0,?
2017-06-01 18:07:34.054373,4540.03030258,4.1212121208,4220.1212117,12.3636363624,3916.18181779,12.3636363624,3887.33333294,4022.3030299,4276.78787836,168.969696953,4418.45454501,712.969696898,4180.96969655,531.636363583,4334.99999957,1858.66666648,4959.36363587,2884.84848456,3995.51515112,3622.54545418,4426.18181774,0.0,4197.96969655,4.1212121208,4842.42424194,4.1212121208,4371.57575714,3828.60606022,42.0,42.0,?
2017-06-01 18:07:34.063689,4545.18181773,4.1212121208,4219.09090867,12.3636363624,3919.7878784,12.3636363624,3887.84848446,4022.3030299,4272.66666624,168.969696953,4417.42424198,712.969696898,4182.5151511,539.878787825,4338.60606017,1858.66666648,4976.36363587,2884.84848456,3990.87878748,3622.54545418,4427.21212077,0.0,4195.90909049,4.1212121208,4840.36363588,4.1212121208,4368.99999956,3828.60606022,42.0,42.0,?
2017-06-01 18:07:34.070680,4536.42424197,4.1212121208,4213.93939352,12.3636363624,3917.21212082,12.3636363624,3900.21212082,4022.3030299,4273.69696927,168.969696953,4420.51515107,712.969696898,4189.72727231,539.878787825,4344.27272684,1850.42424224,4996.45454495,2884.84848456,4000.66666627,3622.54545418,4431.33333289,0.0,4200.03030261,4.1212121208,4838.30302982,4.1212121208,4374.66666623,3828.60606022,42.0,42.0,?
2017-06-01 18:07:34.080203,4541.06060561,4.1212121208,4219.09090867,12.3636363624,3918.24242385,12.3636363624,3897.63636325,4022.3030299,4269.06060563,168.969696953,4418.45454501,712.969696898,4188.18181776,539.878787825,4339.12121169,1850.42424224,4989.75757526,2855.99999971,4004.78787839,3622.54545418,4429.78787834,0.0,4202.09090867,4.1212121208,4839.33333285,4.1212121208,4375.69696926,3828.60606022,42.0,42.0,?
2017-06-01 18:07:34.087199,4539.51515106,4.1212121208,4220.63636321,12.3636363624,3913.0909087,12.3636363624,3896.60606022,4022.3030299,4268.54545412,168.969696953,4416.90909047,712.969696898,4178.39393898,539.878787825,4333.96969654,1850.42424224,4991.81818132,2855.99999971,3998.60606021,3618.42424206,4427.21212077,0.0,4201.06060564,4.1212121208,4840.87878739,4.1212121208,4373.12121168,3828.60606022,42.0,42.0,?
2017-06-01 18:07:34.093460,4535.90909046,4.1212121208,4217.54545412,12.3636363624,3913.0909087,12.3636363624,3882.69696931,4022.3030299,4277.30302988,168.969696953,4425.15151471,712.969696898,4178.39393898,539.878787825,4339.6363632,1850.42424224,4993.87878738,2855.99999971,3996.54545415,3618.42424206,4428.2424238,8.2424242416,4200.03030261,4.1212121208,4841.39393891,4.1212121208,4378.78787835,3828.60606022,42.0,42.0,?
2017-06-01 18:07:34.102757,4541.06060561,4.1212121208,4216.51515109,12.3636363624,3919.27272688,12.3636363624,3868.27272689,4022.3030299,4281.424242,168.969696953,4430.30302986,712.969696898,4181.99999958,539.878787825,4339.12121169,1850.42424224,4963.9999995,2855.99999971,4004.78787839,3618.42424206,4426.69696925,8.2424242416,4197.96969655,0.0,4838.81818133,4.1212121208,4387.54545411,3828.60606022,42.0,42.0,?
2017-06-01 18:07:34.109490,4535.39393894,4.1212121208,4214.45454503,12.3636363624,3914.63636324,12.3636363624,3889.393939,4022.3030299,4279.36363594,168.969696953,4422.57575713,712.969696898,4179.93939352,539.878787825,4340.66666623,1850.42424224,4958.84848435,2855.99999971,4014.57575717,3618.42424206,4427.21212077,8.2424242416,4200.03030261,0.0,4839.33333285,4.1212121208,4391.15151471,3828.60606022,42.0,42.0,?
2017-06-01 18:07:34.119493,4541.06060561,4.1212121208,4220.1212117,12.3636363624,3913.60606021,12.3636363624,3912.06060567,4022.3030299,4266.48484806,168.969696953,4416.90909047,712.969696898,4176.33333292,539.878787825,4348.39393896,1850.42424224,4992.33333283,2855.99999971,4006.84848445,3618.42424206,4427.72727228,8.2424242416,4202.60606019,0.0,4841.90909042,4.1212121208,4381.87878744,3828.60606022,42.0,42.0,?
2017-06-01 18:07:34.125925,4543.12121167,4.1212121208,4220.1212117,12.3636363624,3917.21212082,12.3636363624,3904.33333294,4022.3030299,4260.30302988,168.969696953,4418.45454501,712.969696898,4181.99999958,539.878787825,4348.90909047,1850.42424224,5012.93939344,2855.99999971,3992.42424203,3618.42424206,4429.27272683,4.1212121208,4202.09090867,0.0,4839.33333285,4.1212121208,4378.78787835,3828.60606022,42.0,42.0,?
2017-06-01 18:07:34.134097,4537.454545,4.1212121208,4217.03030261,12.3636363624,3916.69696931,12.3636363624,3884.24242385,4022.3030299,4271.12121169,168.969696953,4422.06060562,712.969696898,4190.75757534,539.878787825,4343.24242381,1850.42424224,5009.84848435,2855.99999971,3992.42424203,3618.42424206,4431.33333289,4.1212121208,4203.1212117,0.0,4839.84848436,4.1212121208,4385.48484805,3828.60606022,42.0,42.0,?
2017-06-01 18:07:34.140832,4540.03030258,4.1212121208,4219.09090867,12.3636363624,3916.18181779,12.3636363624,3884.24242385,4022.3030299,4279.36363594,168.969696953,4424.63636319,712.969696898,4190.24242382,539.878787825,4342.72727229,1850.42424224,4996.96969647,2855.99999971,4003.75757536,3618.42424206,4427.72727228,4.1212121208,4203.1212117,0.0,4841.90909042,4.1212121208,4384.45454502,3828.60606022,42.0,42.0,?
2017-06-01 18:07:34.148548,4537.454545,4.1212121208,4217.03030261,12.3636363624,3915.15151476,12.3636363624,3897.63636325,4022.3030299,4280.39393897,168.969696953,4420.51515107,712.969696898,4183.03030261,539.878787825,4351.48484805,1850.42424224,4993.36363586,2855.99999971,4015.6060602,3618.42424206,4428.2424238,4.1212121208,4202.60606019,0.0,4840.36363588,4.1212121208,4381.36363593,3828.60606022,42.0,42.0,?
2017-06-01 18:07:34.158135,4544.1515147,4.1212121208,4219.09090867,12.3636363624,3917.21212082,12.3636363624,3903.81818143,4022.3030299,4280.90909048,168.969696953,4414.84848441,712.969696898,4178.90909049,539.878787825,4348.90909047,1850.42424224,4991.3030298,2855.99999971,4013.54545414,3618.42424206,4431.33333289,4.1212121208,4202.60606019,0.0,4840.36363588,4.1212121208,4383.42424199,3828.60606022,42.0,42.0,?
2017-06-01 18:07:34.164470,4541.57575712,4.1212121208,4219.60606018,12.3636363624,3917.21212082,12.3636363624,3902.27272688,4022.3030299,4281.424242,168.969696953,4420.51515107,712.969696898,4181.99999958,539.878787825,4343.75757532,1850.42424224,4982.03030253,2855.99999971,4010.45454505,3618.42424206,4430.81818138,4.1212121208,4201.06060564,0.0,4838.81818133,4.1212121208,4388.06060562,3828.60606022,42.0,42.0,?
2017-06-01 18:07:34.173196,4535.90909046,4.1212121208,4217.54545412,12.3636363624,3917.72727234,12.3636363624,3893.51515113,4022.3030299,4283.99999957,168.969696953,4429.78787834,712.969696898,4185.60606019,539.878787825,4348.90909047,1850.42424224,4982.03030253,2855.99999971,4006.84848445,3618.42424206,4429.78787834,4.1212121208,4202.09090867,0.0,4839.33333285,4.1212121208,4391.66666623,3828.60606022,42.0,42.0,?
2017-06-01 18:07:34.179627,4546.72727227,4.1212121208,4218.57575715,12.3636363624,3919.7878784,12.3636363624,3886.81818143,4022.3030299,4288.12121169,168.969696953,4430.81818138,712.969696898,4186.1212117,539.878787825,4350.45454502,1850.42424224,4987.6969692,2855.99999971,3999.12121172,3618.42424206,4428.75757531,4.1212121208,4202.60606019,0.0,4842.93939346,4.1212121208,4389.09090865,3828.60606022,42.0,42.0,?
2017-06-01 18:07:34.187396,4540.03030258,4.1212121208,4215.99999958,12.3636363624,3915.66666628,12.3636363624,3897.12121173,4022.3030299,4286.57575715,168.969696953,4427.21212077,712.969696898,4185.60606019,539.878787825,4346.3333329,1850.42424224,4994.39393889,2855.99999971,3992.42424203,3618.42424206,4427.21212077,4.1212121208,4200.54545413,0.0,4839.33333285,4.1212121208,4380.3333329,3828.60606022,42.0,42.0,?
2017-06-01 18:07:34.196411,4541.57575712,4.1212121208,4219.60606018,12.3636363624,3917.21212082,12.3636363624,3911.54545415,4022.3030299,4281.93939351,168.969696953,4424.12121168,712.969696898,4181.48484807,539.878787825,4338.60606017,1850.42424224,4996.45454495,2855.99999971,3979.54545415,3618.42424206,4429.27272683,4.1212121208,4200.54545413,0.0,4839.33333285,4.1212121208,4375.69696926,3828.60606022,42.0,42.0,?
2017-06-01 18:07:34.205733,4545.18181773,4.1212121208,4218.57575715,12.3636363624,3917.72727234,12.3636363624,3910.51515112,4022.3030299,4284.51515109,168.969696953,4423.60606016,712.969696898,4178.90909049,539.878787825,4336.0303026,1850.42424224,5001.09090859,2855.99999971,3981.09090869,3618.42424206,4430.30302986,4.1212121208,4204.15151473,0.0,4842.93939346,4.1212121208,4381.36363593,3828.60606022,42.0,42.0,?
2017-06-01 18:07:34.212215,4526.12121167,4.1212121208,4214.96969655,12.3636363624,3914.12121173,12.3636363624,3903.30302991,4022.3030299,4284.51515109,168.969696953,4426.18181774,712.969696898,4176.33333292,539.878787825,4334.99999957,1850.42424224,4998.51515102,2855.99999971,3994.48484809,3618.42424206,4416.39393895,4.1212121208,4200.54545413,0.0,4832.12121164,4.1212121208,4387.03030259,3828.60606022,42.0,42.0,?
2017-06-01 18:07:34.222982,4541.06060561,4.1212121208,4223.21212079,12.3636363624,3918.75757537,12.3636363624,3887.84848446,4022.3030299,4277.81818139,168.969696953,4427.21212077,712.969696898,4174.78787837,539.878787825,4336.0303026,1850.42424224,4980.48484799,2855.99999971,3990.87878748,3618.42424206,4433.39393895,4.1212121208,4201.06060564,0.0,4847.57575709,4.1212121208,4389.09090865,3828.60606022,42.0,42.0,?
2017-06-01 18:07:34.227613,4542.09090864,4.1212121208,4220.1212117,12.3636363624,3916.69696931,12.3636363624,3874.45454507,4022.3030299,4281.424242,168.969696953,4426.18181774,712.969696898,4179.42424201,539.878787825,4345.30302987,1850.42424224,4977.90909041,2855.99999971,3966.66666627,3618.42424206,4435.45454501,4.1212121208,4202.60606019,0.0,4848.09090861,4.1212121208,4390.6363632,3828.60606022,42.0,42.0,?
2017-06-01 18:07:34.236027,4519.93939349,4.1212121208,4213.93939352,12.3636363624,3912.57575718,12.3636363624,3882.18181779,4022.3030299,4283.48484806,168.969696953,4426.18181774,712.969696898,4180.96969655,539.878787825,4347.36363593,1850.42424224,4995.93939344,2855.99999971,3938.84848445,3618.42424206,4396.81818138,4.1212121208,4190.75757534,0.0,4811.51515103,4.1212121208,4380.84848441,3828.60606022,42.0,42.0,?
2017-06-01 18:07:34.244852,4551.87878742,4.1212121208,4224.24242382,12.3636363624,3918.24242385,12.3636363624,3901.75757537,4022.3030299,4275.24242381,168.969696953,4423.60606016,712.969696898,4182.5151511,539.878787825,4342.21212078,1850.42424224,4996.96969647,2855.99999971,3940.90909052,3618.42424206,4447.30302986,4.1212121208,4201.06060564,0.0,4857.36363588,4.1212121208,4374.15151471,3828.60606022,42.0,42.0,?
2017-06-01 18:07:34.251326,4552.39393894,4.1212121208,4221.66666624,12.3636363624,3918.75757537,12.3636363624,3908.96969658,4022.3030299,4273.69696927,168.969696953,4419.48484804,712.969696898,4183.03030261,539.878787825,4344.27272684,1850.42424224,4988.21212071,2855.99999971,3963.57575718,3618.42424206,4456.57575713,4.1212121208,4210.84848443,0.0,4868.69696921,4.1212121208,4386.51515108,3828.60606022,42.0,42.0,?
2017-06-01 18:07:34.260144,4525.60606015,4.1212121208,4214.96969655,12.3636363624,3916.69696931,12.3636363624,3894.54545416,4022.3030299,4273.69696927,168.969696953,4416.39393895,712.969696898,4178.39393898,539.878787825,4346.3333329,1850.42424224,4996.96969647,2855.99999971,3963.06060566,3618.42424206,4395.27272683,4.1212121208,4197.45454503,0.0,4812.03030255,4.1212121208,4393.72727229,3828.60606022,42.0,42.0,?
2017-06-01 18:07:34.265556,4540.54545409,4.1212121208,4220.1212117,12.3636363624,3917.21212082,12.3636363624,3896.60606022,4022.3030299,4274.7272723,168.969696953,4415.36363592,712.969696898,4180.45454504,539.878787825,4341.18181775,1850.42424224,5000.06060556,2855.99999971,3950.18181779,3618.42424206,4427.72727228,4.1212121208,4201.57575716,0.0,4837.27272679,4.1212121208,4389.60606017,3828.60606022,42.0,42.0,?
2017-06-01 18:07:34.273471,4543.63636318,4.1212121208,4220.1212117,12.3636363624,3916.18181779,12.3636363624,3913.60606021,4022.3030299,4280.90909048,168.969696953,4418.45454501,712.969696898,4181.99999958,539.878787825,4339.12121169,1850.42424224,4984.09090859,2855.99999971,3951.72727233,3618.42424206,4441.63636319,4.1212121208,4205.69696928,0.0,4851.1818177,4.1212121208,4388.06060562,3828.60606022,42.0,42.0,?
2017-06-01 18:07:34.283508,4537.454545,4.1212121208,4218.06060564,12.3636363624,3916.69696931,12.3636363624,3902.7878784,4022.3030299,4275.24242381,168.969696953,4422.06060562,712.969696898,4178.90909049,539.878787825,4336.54545411,1850.42424224,4978.42424193,2855.99999971,3949.66666627,3618.42424206,4419.99999956,4.1212121208,4200.54545413,0.0,4832.12121164,4.1212121208,4387.54545411,3828.60606022,42.0,42.0,?
2017-06-01 18:07:34.290067,4538.99999955,4.1212121208,4217.54545412,12.3636363624,3916.69696931,12.3636363624,3879.60606022,4022.3030299,4261.84848442,168.969696953,4422.06060562,712.969696898,4177.36363595,539.878787825,4335.51515108,1850.42424224,4986.15151465,2855.99999971,3932.15151476,3618.42424206,4430.30302986,4.1212121208,4201.06060564,0.0,4839.84848436,4.1212121208,4382.90909047,3828.60606022,42.0,42.0,?
2017-06-01 18:07:34.298999,4543.63636318,4.1212121208,4222.69696927,12.3636363624,3918.24242385,12.3636363624,3872.90909052,4022.3030299,4264.424242,168.969696953,4423.60606016,712.969696898,4175.8181814,539.878787825,4342.72727229,1850.42424224,4994.90909041,2855.99999971,3933.6969693,3618.42424206,4429.78787834,4.1212121208,4201.06060564,0.0,4842.42424194,4.1212121208,4377.75757532,3828.60606022,42.0,42.0,?
2017-06-01 18:07:34.305718,4541.57575712,4.1212121208,4222.18181776,12.3636363624,3918.24242385,12.3636363624,3886.81818143,4022.3030299,4279.36363594,168.969696953,4424.12121168,712.969696898,4175.30302989,539.878787825,4349.9393935,1850.42424224,4999.03030253,2855.99999971,3955.33333294,3618.42424206,4427.72727228,4.1212121208,4202.09090867,0.0,4839.84848436,4.1212121208,4382.90909047,3828.60606022,42.0,42.0,?
2017-06-01 18:07:34.315271,4538.99999955,4.1212121208,4216.51515109,12.3636363624,3916.69696931,12.3636363624,3896.0909087,4022.3030299,4276.27272685,168.969696953,4419.99999956,712.969696898,4171.69696928,539.878787825,4337.06060563,1850.42424224,4971.21212072,2855.99999971,3951.21212082,3618.42424206,4427.21212077,4.1212121208,4201.57575716,0.0,4837.7878783,4.1212121208,4383.42424199,3828.60606022,42.0,42.0,?
2017-06-01 18:07:34.322136,4545.69696924,4.1212121208,4214.96969655,12.3636363624,3919.27272688,12.3636363624,3881.15151476,4022.3030299,4260.81818139,168.969696953,4412.27272683,712.969696898,4166.54545413,539.878787825,4319.0303026,1850.42424224,4945.96969648,2855.99999971,3926.48484809,3618.42424206,4428.75757531,4.1212121208,4201.57575716,0.0,4840.87878739,4.1212121208,4374.15151471,3828.60606022,42.0,42.0,?
2017-06-01 18:07:34.330857,4533.33333288,4.1212121208,4214.45454503,12.3636363624,3918.24242385,12.3636363624,3868.27272689,4022.3030299,4258.75757533,168.969696953,4410.72727229,712.969696898,4170.66666625,539.878787825,4329.3333329,1850.42424224,4973.78787829,2855.99999971,3930.60606021,3618.42424206,4430.81818138,4.1212121208,4202.60606019,0.0,4842.93939346,4.1212121208,4370.54545411,3828.60606022,42.0,42.0,?
2017-06-01 18:07:34.340671,4536.93939349,4.1212121208,4221.15151473,12.3636363624,3916.69696931,12.3636363624,3886.81818143,4022.3030299,4266.48484806,168.969696953,4420.51515107,712.969696898,4178.90909049,539.878787825,4342.72727229,1850.42424224,4995.42424192,2855.99999971,3939.36363597,3618.42424206,4428.2424238,4.1212121208,4201.57575716,0.0,4842.93939346,4.1212121208,4373.12121168,3828.60606022,42.0,42.0,?
2017-06-01 18:07:34.345308,4543.12121167,4.1212121208,4221.15151473,12.3636363624,3916.18181779,12.3636363624,3900.21212082,4022.3030299,4277.81818139,168.969696953,4427.21212077,712.969696898,4179.42424201,539.878787825,4337.06060563,1850.42424224,4982.03030253,2855.99999971,3934.21212082,3618.42424206,4425.66666622,4.1212121208,4202.09090867,0.0,4841.90909042,4.1212121208,4378.78787835,3828.60606022,42.0,42.0,?
2017-06-01 18:07:34.352103,4532.81818136,4.1212121208,4216.51515109,12.3636363624,3917.72727234,12.3636363624,3886.81818143,4022.3030299,4280.90909048,168.969696953,4419.48484804,712.969696898,4178.39393898,539.878787825,4331.39393896,1850.42424224,4986.66666617,2855.99999971,3945.54545415,3618.42424206,4426.69696925,4.1212121208,4203.63636322,0.0,4841.39393891,4.1212121208,4382.39393896,3828.60606022,42.0,42.0,?
2017-06-01 18:07:34.361879,4536.93939349,4.1212121208,4220.1212117,12.3636363624,3919.7878784,12.3636363624,3895.06060567,4022.3030299,4266.99999957,168.969696953,4415.87878744,712.969696898,4176.84848443,539.878787825,4334.99999957,1850.42424224,5008.81818132,2855.99999971,3956.36363597,3618.42424206,4429.27272683,4.1212121208,4202.60606019,0.0,4844.484848,4.1212121208,4377.2424238,3828.60606022,42.0,42.0,?
2017-06-01 18:07:34.368255,4537.96969652,4.1212121208,4217.54545412,12.3636363624,3918.24242385,12.3636363624,3903.81818143,4022.3030299,4256.69696927,168.969696953,4418.45454501,712.969696898,4173.75757534,539.878787825,4342.72727229,1850.42424224,4986.66666617,2855.99999971,3946.57575718,3618.42424206,4427.72727228,4.1212121208,4201.06060564,0.0,4840.36363588,4.1212121208,4375.69696926,3828.60606022,42.0,42.0,?
2017-06-01 18:07:34.375485,4543.63636318,4.1212121208,4218.57575715,12.3636363624,3919.7878784,12.3636363624,3872.39393901,4022.3030299,4264.93939351,168.969696953,4417.9393935,712.969696898,4173.24242383,539.878787825,4340.15151472,1850.42424224,4948.54545405,2855.99999971,3936.78787839,3618.42424206,4426.18181774,4.1212121208,4201.57575716,0.0,4837.7878783,4.1212121208,4380.3333329,3828.60606022,42.0,42.0,?
2017-06-01 18:07:34.385008,4543.63636318,4.1212121208,4219.60606018,12.3636363624,3917.21212082,12.3636363624,3871.36363598,4022.3030299,4280.39393897,168.969696953,4419.48484804,712.969696898,4177.36363595,539.878787825,4334.48484805,1850.42424224,4974.81818132,2855.99999971,3942.96969658,3618.42424206,4427.72727228,4.1212121208,4204.66666625,0.0,4838.81818133,4.1212121208,4379.81818138,3828.60606022,42.0,42.0,?
2017-06-01 18:07:34.391551,4536.42424197,4.1212121208,4217.03030261,12.3636363624,3912.57575718,12.3636363624,3911.03030264,4022.3030299,4281.424242,168.969696953,4421.5454541,712.969696898,4178.90909049,539.878787825,4339.12121169,1850.42424224,5009.84848435,2855.99999971,3940.393939,3618.42424206,4429.27272683,4.1212121208,4204.15151473,0.0,4839.84848436,4.1212121208,4374.15151471,3828.60606022,42.0,42.0,?
2017-06-01 18:07:34.400101,4542.60606015,4.1212121208,4219.09090867,12.3636363624,3917.21212082,12.3636363624,3917.21212082,4022.3030299,4275.24242381,168.969696953,4420.51515107,712.969696898,4174.78787837,539.878787825,4337.57575714,1850.42424224,4988.21212071,2855.99999971,3925.96969658,3618.42424206,4427.21212077,4.1212121208,4201.06060564,0.0,4842.42424194,4.1212121208,4370.54545411,3828.60606022,42.0,42.0,?
2017-06-01 18:07:34.406890,4534.87878743,4.1212121208,4214.96969655,12.3636363624,3917.21212082,12.3636363624,3899.69696931,4022.3030299,4280.90909048,168.969696953,4424.63636319,712.969696898,4175.8181814,539.878787825,4332.93939351,1850.42424224,4978.42424193,2855.99999971,3933.18181779,3618.42424206,4426.69696925,4.1212121208,4202.60606019,0.0,4840.87878739,4.1212121208,4375.18181774,3828.60606022,42.0,42.0,?
2017-06-01 18:07:34.414444,4537.454545,4.1212121208,4215.99999958,12.3636363624,3916.69696931,12.3636363624,3891.45454507,4022.3030299,4286.06060563,168.969696953,4428.75757531,712.969696898,4180.45454504,539.878787825,4335.51515108,1850.42424224,4993.36363586,2855.99999971,3950.18181779,3618.42424206,4431.84848441,4.1212121208,4204.15151473,0.0,4841.39393891,4.1212121208,4380.84848441,3828.60606022,42.0,42.0,?
2017-06-01 18:07:34.424158,4543.12121167,4.1212121208,4219.09090867,12.3636363624,3917.72727234,12.3636363624,3886.81818143,4022.3030299,4281.93939351,168.969696953,4425.15151471,712.969696898,4178.90909049,539.878787825,4337.06060563,1850.42424224,4986.66666617,2855.99999971,3947.0909087,3618.42424206,4430.81818138,4.1212121208,4202.60606019,0.0,4841.39393891,4.1212121208,4383.42424199,3828.60606022,42.0,42.0,?
2017-06-01 18:07:34.433673,4530.7575753,4.1212121208,4218.06060564,12.3636363624,3916.18181779,12.3636363624,3892.4848481,4022.3030299,4279.36363594,168.969696953,4423.60606016,712.969696898,4175.8181814,539.878787825,4338.60606017,1850.42424224,4979.96969647,2855.99999971,3937.81818142,3618.42424206,4429.27272683,4.1212121208,4202.09090867,0.0,4840.36363588,4.1212121208,4381.87878744,3828.60606022,42.0,42.0,?
2017-06-01 18:07:34.439455,4539.51515106,4.1212121208,4221.15151473,12.3636363624,3919.27272688,12.3636363624,3893.51515113,4022.3030299,4272.66666624,168.969696953,4423.09090865,712.969696898,4176.33333292,539.878787825,4341.18181775,1850.42424224,4978.93939344,2855.99999971,3938.33333294,3618.42424206,4432.87878744,4.1212121208,4203.1212117,0.0,4843.45454497,4.1212121208,4373.6363632,3828.60606022,42.0,42.0,?
2017-06-01 18:07:34.445460,4540.03030258,4.1212121208,4217.54545412,12.3636363624,3917.21212082,12.3636363624,3880.63636325,4022.3030299,4264.93939351,168.969696953,4414.33333289,712.969696898,4174.78787837,539.878787825,4336.0303026,1850.42424224,4978.93939344,2855.99999971,3941.93939355,3618.42424206,4428.75757531,4.1212121208,4202.60606019,0.0,4841.39393891,4.1212121208,4377.2424238,3828.60606022,42.0,42.0,?
2017-06-01 18:07:34.456214,4534.36363591,4.1212121208,4216.51515109,12.3636363624,3914.63636324,12.3636363624,3877.03030264,4022.3030299,4263.90909048,168.969696953,4411.75757532,712.969696898,4172.72727231,539.878787825,4327.27272684,1850.42424224,4991.81818132,2855.99999971,3937.30302991,3618.42424206,4423.60606016,4.1212121208,4202.09090867,0.0,4841.39393891,4.1212121208,4385.48484805,3828.60606022,42.0,42.0,?
2017-06-01 18:07:34.461663,4537.96969652,4.1212121208,4216.51515109,12.3636363624,3916.18181779,12.3636363624,3904.33333294,4022.3030299,4267.51515109,168.969696953,4419.99999956,712.969696898,4174.27272686,539.878787825,4331.39393896,1850.42424224,4957.81818132,2855.99999971,3951.72727233,3618.42424206,4429.27272683,4.1212121208,4202.09090867,0.0,4840.36363588,4.1212121208,4371.06060562,3828.60606022,42.0,42.0,?
2017-06-01 18:07:34.471349,4540.03030258,4.1212121208,4217.03030261,12.3636363624,3920.30302991,12.3636363624,3904.33333294,4022.3030299,4268.0303026,168.969696953,4419.99999956,712.969696898,4174.27272686,539.878787825,4331.39393896,1850.42424224,4953.6969692,2855.99999971,3952.75757536,3618.42424206,4429.27272683,4.1212121208,4202.09090867,0.0,4840.36363588,4.1212121208,4371.06060562,3828.60606022,42.0,42.0,?
2017-06-01 18:07:34.480926,4540.03030258,4.1212121208,4217.03030261,12.3636363624,3920.30302991,12.3636363624,3897.12121173,4022.3030299,4268.0303026,168.969696953,4419.99999956,712.969696898,4172.72727231,539.878787825,4321.09090866,1850.42424224,4953.6969692,2855.99999971,3952.75757536,3618.42424206,4428.2424238,4.1212121208,4202.09090867,0.0,4839.84848436,4.1212121208,4370.03030259,3828.60606022,42.0,42.0,?
2017-06-01 18:07:34.485510,4539.51515106,4.1212121208,4215.99999958,12.3636363624,3919.27272688,12.3636363624,3873.93939355,4022.3030299,4275.24242381,168.969696953,4420.51515107,712.969696898,4172.21212079,539.878787825,4328.30302987,1850.42424224,4982.54545405,2855.99999971,3939.87878748,3618.42424206,4427.21212077,4.1212121208,4202.09090867,0.0,4839.33333285,4.1212121208,4376.21212077,3828.60606022,42.0,42.0,?
2017-06-01 18:07:34.492803,4536.93939349,4.1212121208,4217.03030261,12.3636363624,3918.75757537,12.3636363624,3867.75757537,4022.3030299,4277.81818139,168.969696953,4417.42424198,712.969696898,4172.72727231,539.878787825,4333.45454502,1850.42424224,4992.33333283,2855.99999971,3936.78787839,3618.42424206,4429.27272683,4.1212121208,4203.1212117,0.0,4842.42424194,4.1212121208,4376.21212077,3828.60606022,42.0,42.0,?
2017-06-01 18:07:34.502707,4539.51515106,4.1212121208,4218.06060564,12.3636363624,3920.30302991,12.3636363624,3895.57575719,4022.3030299,4273.69696927,168.969696953,4417.42424198,712.969696898,4174.27272686,539.878787825,4326.24242381,1850.42424224,4984.09090859,2855.99999971,3946.06060567,3618.42424206,4428.75757531,4.1212121208,4203.1212117,0.0,4842.42424194,4.1212121208,4374.15151471,3828.60606022,42.0,42.0,?
2017-06-01 18:07:34.509310,4534.36363591,12.3636363624,4214.45454503,12.3636363624,3915.66666628,12.3636363624,3923.393939,4022.3030299,4273.69696927,168.969696953,4421.5454541,712.969696898,4178.90909049,539.878787825,4329.84848442,1850.42424224,4984.60606011,2855.99999971,3956.87878748,3618.42424206,4428.75757531,4.1212121208,4202.60606019,0.0,4837.7878783,4.1212121208,4378.78787835,3828.60606022,42.0,42.0,?
2017-06-01 18:07:34.518001,4544.1515147,12.3636363624,4221.15151473,8.2424242416,3917.72727234,12.3636363624,3908.45454506,4022.3030299,4270.60606018,168.969696953,4421.03030259,712.969696898,4177.36363595,539.878787825,4335.51515108,1850.42424224,4974.81818132,2855.99999971,3957.393939,3618.42424206,4430.30302986,4.1212121208,4202.60606019,0.0,4841.39393891,4.1212121208,4376.72727229,3828.60606022,42.0,42.0,?
2017-06-01 18:07:34.524318,4543.12121167,12.3636363624,4222.69696927,8.2424242416,3917.72727234,12.3636363624,3879.60606022,4022.3030299,4270.09090866,168.969696953,4417.42424198,712.969696898,4175.30302989,539.878787825,4335.51515108,1850.42424224,4968.63636314,2855.99999971,3961.51515112,3618.42424206,4427.21212077,4.1212121208,4202.09090867,0.0,4842.93939346,4.1212121208,4374.15151471,3836.84848446,42.0,42.0,?
2017-06-01 18:07:34.533398,4532.30302985,12.3636363624,4219.60606018,8.2424242416,3916.18181779,12.3636363624,3877.03030264,4022.3030299,4271.63636321,168.969696953,4419.48484804,712.969696898,4178.39393898,539.878787825,4336.0303026,1850.42424224,4981.51515102,2855.99999971,3967.18181779,3618.42424206,4428.75757531,4.1212121208,4203.1212117,0.0,4841.90909042,4.1212121208,4375.18181774,3836.84848446,42.0,42.0,?
2017-06-01 18:07:34.539912,4537.96969652,12.3636363624,4220.63636321,8.2424242416,3918.75757537,12.3636363624,3883.72727234,4038.78787838,4264.424242,168.969696953,4417.9393935,712.969696898,4174.78787837,539.878787825,4331.39393896,1850.42424224,4985.63636314,2855.99999971,3955.84848445,3618.42424206,4429.78787834,4.1212121208,4203.1212117,0.0,4842.42424194,4.1212121208,4374.66666623,3836.84848446,42.0,42.0,?
2017-06-01 18:07:34.547448,4535.39393894,12.3636363624,4217.54545412,8.2424242416,3916.18181779,12.3636363624,3889.393939,4038.78787838,4264.93939351,177.212121194,4413.30302986,712.969696898,4169.1212117,539.878787825,4329.3333329,1850.42424224,4978.93939344,2855.99999971,3953.27272688,3618.42424206,4426.69696925,4.1212121208,4201.06060564,0.0,4839.33333285,4.1212121208,4384.96969653,3836.84848446,42.0,42.0,?
2017-06-01 18:07:34.557526,4542.09090864,12.3636363624,4220.63636321,8.2424242416,3916.18181779,12.3636363624,3890.42424204,4038.78787838,4271.12121169,177.212121194,4418.96969653,733.575757502,4172.21212079,539.878787825,4331.90909048,1850.42424224,4979.96969647,2855.99999971,3976.45454506,3618.42424206,4427.21212077,4.1212121208,4202.09090867,0.0,4841.90909042,4.1212121208,4404.03030259,3836.84848446,42.0,42.0,?
2017-06-01 18:07:34.562973,4543.12121167,12.3636363624,4220.63636321,8.2424242416,3917.21212082,12.3636363624,3894.54545416,4038.78787838,4271.63636321,177.212121194,4423.09090865,733.575757502,4176.84848443,535.757575704,4330.36363593,1850.42424224,4982.03030253,2855.99999971,3996.03030263,3618.42424206,4428.75757531,4.1212121208,4203.63636322,0.0,4842.93939346,4.1212121208,4419.99999956,3836.84848446,42.0,42.0,?
2017-06-01 18:07:34.570442,4531.78787833,12.3636363624,4216.51515109,8.2424242416,3915.66666628,12.3636363624,3907.93939355,4038.78787838,4273.69696927,177.212121194,4420.51515107,733.575757502,4176.33333292,535.757575704,4331.39393896,1850.42424224,4981.51515102,2855.99999971,4002.21212081,3618.42424206,4429.78787834,4.1212121208,4203.63636322,0.0,4839.84848436,4.1212121208,4437.51515107,3836.84848446,42.0,42.0,?
2017-06-01 18:07:34.580746,4540.03030258,12.3636363624,4219.60606018,8.2424242416,3917.21212082,12.3636363624,3898.66666628,4038.78787838,4274.7272723,177.212121194,4421.5454541,733.575757502,4175.30302989,535.757575704,4330.36363593,1850.42424224,4982.03030253,2864.24242396,4009.42424202,3618.42424206,4430.30302986,4.1212121208,4203.1212117,0.0,4842.93939346,4.1212121208,4461.72727228,3836.84848446,42.0,42.0,?
2017-06-01 18:07:34.586989,4538.99999955,12.3636363624,4218.06060564,8.2424242416,3916.69696931,12.3636363624,3883.72727234,4038.78787838,4267.51515109,177.212121194,4420.51515107,733.575757502,4176.84848443,535.757575704,4332.42424199,1850.42424224,4980.9999995,2864.24242396,4016.12121172,3614.30302994,4428.2424238,4.1212121208,4203.1212117,0.0,4842.42424194,4.1212121208,4489.5454541,3836.84848446,42.0,42.0,?
2017-06-01 18:07:34.595447,4540.03030258,12.3636363624,4218.06060564,8.2424242416,3918.75757537,12.3636363624,3888.36363597,4038.78787838,4258.24242382,177.212121194,4417.9393935,733.575757502,4177.36363595,535.757575704,4335.51515108,1850.42424224,4986.66666617,2864.24242396,4023.84848445,3614.30302994,4429.27272683,0.0,4202.60606019,0.0,4841.90909042,4.1212121208,4508.60606016,3836.84848446,42.0,42.0,?
2017-06-01 18:07:34.604631,4538.99999955,12.3636363624,4220.1212117,8.2424242416,3920.30302991,12.3636363624,3897.63636325,4038.78787838,4255.15151473,177.212121194,4415.87878744,733.575757502,4178.90909049,535.757575704,4330.87878745,1850.42424224,4991.81818132,2864.24242396,4048.06060566,3614.30302994,4430.30302986,0.0,4204.15151473,0.0,4842.93939346,4.1212121208,4515.30302985,3836.84848446,42.0,42.0,?
2017-06-01 18:07:34.609976,4530.24242379,12.3636363624,4220.1212117,8.2424242416,3918.24242385,12.3636363624,3894.03030264,4038.78787838,4254.1212117,177.212121194,4413.30302986,733.575757502,4180.45454504,535.757575704,4328.81818139,1850.42424224,4984.60606011,2864.24242396,4074.84848444,3614.30302994,4428.75757531,0.0,4204.15151473,0.0,4840.87878739,12.3636363624,4519.42424197,3836.84848446,42.0,42.0,?
2017-06-01 18:07:34.619533,4541.57575712,12.3636363624,4222.69696927,8.2424242416,3919.27272688,12.3636363624,3890.42424204,4038.78787838,4256.69696927,177.212121194,4414.84848441,733.575757502,4177.87878746,535.757575704,4332.93939351,1850.42424224,4979.96969647,2864.24242396,4067.63636323,3618.42424206,4427.72727228,0.0,4203.1212117,0.0,4841.39393891,12.3636363624,4517.87878743,3836.84848446,42.0,42.0,?
2017-06-01 18:07:34.626018,4538.99999955,12.3636363624,4217.03030261,8.2424242416,3916.18181779,12.3636363624,3893.51515113,4038.78787838,4268.0303026,177.212121194,4416.39393895,733.575757502,4174.27272686,535.757575704,4338.60606017,1850.42424224,4994.39393889,2864.24242396,4047.03030263,3618.42424206,4427.72727228,4.1212121208,4202.60606019,0.0,4840.36363588,12.3636363624,4508.60606016,3836.84848446,42.0,42.0,?
2017-06-01 18:07:34.633621,4536.93939349,12.3636363624,4217.03030261,8.2424242416,3917.21212082,12.3636363624,3881.66666628,4038.78787838,4267.51515109,177.212121194,4415.36363592,733.575757502,4171.69696928,535.757575704,4333.96969654,1850.42424224,4986.15151465,2864.24242396,4032.6060602,3618.42424206,4430.30302986,4.1212121208,4202.09090867,12.3636363624,4839.84848436,12.3636363624,4497.78787834,3836.84848446,42.0,42.0,?
2017-06-01 18:07:34.642468,4542.09090864,12.3636363624,4221.66666624,8.2424242416,3920.30302991,12.3636363624,3873.42424204,4038.78787838,4260.30302988,177.212121194,4417.42424198,733.575757502,4167.57575716,535.757575704,4321.09090866,1850.42424224,4956.27272678,2864.24242396,4019.72727233,3618.42424206,4430.81818138,4.1212121208,4202.09090867,12.3636363624,4840.36363588,12.3636363624,4489.5454541,3836.84848446,42.0,42.0,?
2017-06-01 18:07:34.649254,4534.36363591,12.3636363624,4218.06060564,8.2424242416,3916.69696931,12.3636363624,3898.66666628,4038.78787838,4271.63636321,177.212121194,4424.63636319,733.575757502,4172.72727231,535.757575704,4326.24242381,1850.42424224,4970.18181768,2864.24242396,4016.12121172,3618.42424206,4431.84848441,4.1212121208,4203.1212117,12.3636363624,4840.87878739,12.3636363624,4486.45454501,3836.84848446,42.0,42.0,?
2017-06-01 18:07:34.658227,4542.09090864,12.3636363624,4219.60606018,8.2424242416,3916.18181779,12.3636363624,3914.12121173,4038.78787838,4280.90909048,177.212121194,4429.27272683,733.575757502,4185.60606019,535.757575704,4337.57575714,1850.42424224,4998.51515102,2864.24242396,4015.6060602,3618.42424206,4431.33333289,4.1212121208,4203.1212117,12.3636363624,4844.484848,12.3636363624,4480.78787834,3836.84848446,42.0,42.0,?
2017-06-01 18:07:34.665017,4543.12121167,12.3636363624,4220.63636321,8.2424242416,3916.18181779,12.3636363624,3878.06060567,4038.78787838,4268.54545412,177.212121194,4425.15151471,733.575757502,4187.66666625,535.757575704,4334.99999957,1850.42424224,4986.66666617,2864.24242396,4019.72727233,3618.42424206,4429.78787834,4.1212121208,4202.60606019,12.3636363624,4842.93939346,12.3636363624,4474.60606016,3836.84848446,42.0,42.0,?
2017-06-01 18:07:34.672522,4536.93939349,12.3636363624,4220.1212117,8.2424242416,3917.21212082,12.3636363624,3859.51515113,4038.78787838,4259.27272685,177.212121194,4419.99999956,733.575757502,4180.45454504,535.757575704,4333.45454502,1850.42424224,4972.24242375,2864.24242396,4020.75757536,3618.42424206,4431.33333289,4.1212121208,4205.69696928,12.3636363624,4843.45454497,12.3636363624,4468.93939349,3836.84848446,42.0,42.0,?
2017-06-01 18:07:34.683223,4542.60606015,12.3636363624,4219.60606018,8.2424242416,3918.24242385,12.3636363624,3904.84848446,4038.78787838,4265.96969654,177.212121194,4419.99999956,733.575757502,4180.96969655,535.757575704,4345.30302987,1850.42424224,4982.54545405,2864.24242396,4009.42424202,3618.42424206,4430.30302986,4.1212121208,4203.1212117,12.3636363624,4843.45454497,12.3636363624,4459.66666622,3836.84848446,42.0,42.0,?
2017-06-01 18:07:34.690055,4536.93939349,12.3636363624,4215.48484806,8.2424242416,3915.15151476,12.3636363624,3931.12121173,4038.78787838,4272.66666624,177.212121194,4423.60606016,733.575757502,4185.60606019,535.757575704,4349.42424199,1850.42424224,4987.18181768,2864.24242396,3994.9999996,3618.42424206,4426.18181774,4.1212121208,4196.424242,12.3636363624,4839.84848436,12.3636363624,4449.36363592,3836.84848446,42.0,42.0,?
2017-06-01 18:07:34.695524,4542.60606015,12.3636363624,4218.06060564,8.2424242416,3917.72727234,12.3636363624,3902.27272688,4038.78787838,4273.69696927,177.212121194,4426.69696925,733.575757502,4178.39393898,535.757575704,4334.99999957,1850.42424224,4982.03030253,2864.24242396,3985.21212081,3618.42424206,4426.18181774,4.1212121208,4198.99999958,12.3636363624,4842.93939346,12.3636363624,4438.03030259,3836.84848446,42.0,42.0,?
2017-06-01 18:07:34.703762,4541.57575712,12.3636363624,4217.54545412,8.2424242416,3917.21212082,12.3636363624,3888.36363597,4038.78787838,4277.30302988,177.212121194,4425.66666622,733.575757502,4170.66666625,535.757575704,4331.39393896,1850.42424224,4981.51515102,2864.24242396,3991.90909051,3618.42424206,4428.2424238,4.1212121208,4204.15151473,12.3636363624,4842.42424194,12.3636363624,4430.81818138,3836.84848446,42.0,42.0,?
2017-06-01 18:07:34.713464,4532.81818136,12.3636363624,4217.03030261,8.2424242416,3916.69696931,12.3636363624,3893.51515113,4038.78787838,4274.7272723,177.212121194,4425.15151471,733.575757502,4173.24242383,535.757575704,4332.42424199,1850.42424224,4977.3939389,2864.24242396,3993.96969657,3618.42424206,4430.30302986,4.1212121208,4202.60606019,12.3636363624,4840.36363588,12.3636363624,4424.12121168,3836.84848446,42.0,42.0,?
2017-06-01 18:07:34.719982,4540.03030258,12.3636363624,4219.09090867,8.2424242416,3919.7878784,12.3636363624,3883.72727234,4038.78787838,4268.0303026,177.212121194,4425.15151471,733.575757502,4177.36363595,535.757575704,4328.81818139,1850.42424224,4974.81818132,2864.24242396,3985.21212081,3618.42424206,4429.27272683,4.1212121208,4201.06060564,12.3636363624,4841.90909042,12.3636363624,4415.36363592,3836.84848446,42.0,42.0,?
2017-06-01 18:07:34.729235,4538.99999955,12.3636363624,4218.57575715,8.2424242416,3915.66666628,12.3636363624,3888.36363597,4038.78787838,4270.60606018,177.212121194,4419.99999956,733.575757502,4176.84848443,535.757575704,4332.42424199,1850.42424224,4975.33333284,2864.24242396,3987.27272687,3618.42424206,4427.21212077,4.1212121208,4202.09090867,12.3636363624,4841.39393891,12.3636363624,4413.30302986,3836.84848446,42.0,42.0,?
2017-06-01 18:07:34.735617,4543.12121167,12.3636363624,4222.18181776,8.2424242416,3916.18181779,12.3636363624,3905.36363597,4038.78787838,4268.0303026,177.212121194,4417.42424198,733.575757502,4173.75757534,535.757575704,4336.54545411,1850.42424224,4972.24242375,2864.24242396,3993.45454506,3618.42424206,4428.75757531,4.1212121208,4202.09090867,12.3636363624,4841.90909042,12.3636363624,4412.27272683,3836.84848446,42.0,42.0,?
2017-06-01 18:07:34.744641,4543.12121167,12.3636363624,4219.60606018,8.2424242416,3919.7878784,12.3636363624,3907.42424203,4038.78787838,4266.99999957,177.212121194,4419.99999956,733.575757502,4176.33333292,535.757575704,4337.57575714,1850.42424224,4987.6969692,2864.24242396,3990.87878748,3618.42424206,4428.75757531,4.1212121208,4202.09090867,12.3636363624,4841.39393891,12.3636363624,4406.60606017,3836.84848446,42.0,42.0,?
2017-06-01 18:07:34.750897,4535.90909046,12.3636363624,4216.51515109,8.2424242416,3919.7878784,12.3636363624,3900.72727234,4038.78787838,4274.21212078,177.212121194,4418.45454501,733.575757502,4179.93939352,535.757575704,4339.12121169,1850.42424224,4997.9999995,2864.24242396,3986.75757536,3618.42424206,4429.78787834,4.1212121208,4202.60606019,12.3636363624,4840.87878739,12.3636363624,4402.48484804,3836.84848446,42.0,42.0,?
2017-06-01 18:07:34.758496,4543.63636318,12.3636363624,4221.66666624,8.2424242416,3919.7878784,12.3636363624,3892.4848481,4038.78787838,4273.18181775,177.212121194,4415.36363592,733.575757502,4178.39393898,535.757575704,4334.48484805,1850.42424224,4972.24242375,2864.24242396,3983.15151475,3618.42424206,4429.78787834,4.1212121208,4202.09090867,12.3636363624,4842.42424194,12.3636363624,4399.90909047,3836.84848446,42.0,42.0,?
2017-06-01 18:07:34.768594,4540.03030258,12.3636363624,4216.51515109,8.2424242416,3916.18181779,12.3636363624,3884.75757537,4038.78787838,4272.66666624,177.212121194,4419.48484804,733.575757502,4179.42424201,535.757575704,4332.42424199,1850.42424224,4970.18181768,2864.24242396,3983.66666627,3618.42424206,4427.21212077,4.1212121208,4202.60606019,12.3636363624,4841.39393891,12.3636363624,4400.9393935,3836.84848446,42.0,42.0,?
2017-06-01 18:07:34.774504,4542.60606015,12.3636363624,4217.03030261,8.2424242416,3917.21212082,12.3636363624,3881.66666628,4038.78787838,4279.36363594,177.212121194,4427.72727228,733.575757502,4187.15151473,535.757575704,4339.6363632,1850.42424224,4991.81818132,2864.24242396,3984.18181778,3618.42424206,4429.27272683,4.1212121208,4203.1212117,12.3636363624,4841.90909042,12.3636363624,4402.48484804,3836.84848446,42.0,42.0,?
2017-06-01 18:07:34.783548,4542.60606015,12.3636363624,4221.66666624,8.2424242416,3919.27272688,12.3636363624,3891.96969658,4038.78787838,4285.0303026,177.212121194,4428.75757531,733.575757502,4190.75757534,535.757575704,4346.84848441,1850.42424224,4993.36363586,2864.24242396,3977.48484809,3618.42424206,4429.78787834,4.1212121208,4203.63636322,12.3636363624,4839.84848436,12.3636363624,4398.87878744,3836.84848446,42.0,42.0,?
2017-06-01 18:07:34.790932,4532.81818136,12.3636363624,4218.06060564,8.2424242416,3917.21212082,12.3636363624,3900.72727234,4038.78787838,4283.99999957,177.212121194,4425.15151471,733.575757502,4186.63636322,535.757575704,4346.3333329,1850.42424224,4985.63636314,2864.24242396,3979.03030263,3618.42424206,4429.27272683,4.1212121208,4202.09090867,12.3636363624,4838.30302982,12.3636363624,4393.21212077,3836.84848446,42.0,42.0,?
2017-06-01 18:07:34.799083,4544.1515147,12.3636363624,4218.57575715,8.2424242416,3918.75757537,12.3636363624,3900.72727234,4038.78787838,4282.45454503,177.212121194,4425.15151471,733.575757502,4180.96969655,535.757575704,4336.54545411,1850.42424224,4972.75757526,2864.24242396,3981.60606021,3618.42424206,4428.75757531,4.1212121208,4200.54545413,12.3636363624,4842.42424194,12.3636363624,4387.54545411,3836.84848446,42.0,42.0,?
2017-06-01 18:07:34.810005,4542.60606015,12.3636363624,4217.03030261,8.2424242416,3918.75757537,12.3636363624,3901.24242385,4038.78787838,4289.15151472,177.212121194,4429.78787834,733.575757502,4178.39393898,535.757575704,4332.42424199,1850.42424224,4972.75757526,2864.24242396,3973.87878748,3618.42424206,4427.72727228,4.1212121208,4201.57575716,12.3636363624,4840.36363588,12.3636363624,4383.42424199,3836.84848446,42.0,42.0,?
2017-06-01 18:07:34.815141,4539.51515106,12.3636363624,4217.03030261,8.2424242416,3918.75757537,12.3636363624,3891.45454507,4038.78787838,4287.60606018,177.212121194,4433.39393895,733.575757502,4176.84848443,535.757575704,4334.48484805,1850.42424224,4983.06060556,2864.24242396,3967.6969693,3618.42424206,4427.21212077,4.1212121208,4202.60606019,12.3636363624,4840.87878739,12.3636363624,4379.81818138,3836.84848446,42.0,42.0,?
2017-06-01 18:07:34.821976,4545.18181773,12.3636363624,4217.54545412,8.2424242416,3917.21212082,12.3636363624,3882.69696931,4038.78787838,4282.45454503,177.212121194,4430.30302986,733.575757502,4177.87878746,535.757575704,4329.84848442,1850.42424224,4977.90909041,2864.24242396,3971.30302991,3618.42424206,4427.72727228,4.1212121208,4202.09090867,12.3636363624,4843.45454497,12.3636363624,4380.84848441,3836.84848446,42.0,42.0,?
2017-06-01 18:07:34.829226,4535.39393894,12.3636363624,4214.96969655,8.2424242416,3913.60606021,12.3636363624,3903.30302991,4038.78787838,4286.06060563,177.212121194,4425.15151471,733.575757502,4178.39393898,535.757575704,4328.30302987,1850.42424224,4973.78787829,2864.24242396,3979.03030263,3618.42424206,4428.2424238,4.1212121208,4202.60606019,12.3636363624,4841.39393891,12.3636363624,4386.51515108,3836.84848446,42.0,42.0,?
2017-06-01 18:07:34.836978,4539.51515106,12.3636363624,4218.57575715,8.2424242416,3917.21212082,12.3636363624,3917.21212082,4038.78787838,4286.06060563,177.212121194,4422.57575713,733.575757502,4175.8181814,535.757575704,4337.06060563,1850.42424224,4983.06060556,2864.24242396,3983.15151475,3618.42424206,4428.2424238,4.1212121208,4202.09090867,12.3636363624,4841.39393891,12.3636363624,4386.51515108,3836.84848446,42.0,42.0,?
2017-06-01 18:07:34.844554,4540.54545409,12.3636363624,4217.03030261,8.2424242416,3919.7878784,12.3636363624,3899.69696931,4038.78787838,4279.36363594,177.212121194,4425.66666622,733.575757502,4177.87878746,535.757575704,4346.84848441,1850.42424224,4992.33333283,2864.24242396,3988.81818142,3618.42424206,4428.75757531,4.1212121208,4201.06060564,12.3636363624,4840.87878739,12.3636363624,4387.03030259,3836.84848446,42.0,42.0,?
2017-06-01 18:07:34.854274,4537.96969652,12.3636363624,4219.09090867,8.2424242416,3919.27272688,12.3636363624,3885.27272688,4038.78787838,4274.7272723,177.212121194,4430.30302986,733.575757502,4181.99999958,535.757575704,4344.27272684,1850.42424224,4985.63636314,2864.24242396,3984.6969693,3618.42424206,4430.81818138,4.1212121208,4203.63636322,12.3636363624,4842.42424194,12.3636363624,4384.96969653,3836.84848446,42.0,42.0,?
2017-06-01 18:07:34.860867,4540.03030258,12.3636363624,4220.63636321,8.2424242416,3915.66666628,12.3636363624,3894.54545416,4038.78787838,4279.87878745,177.212121194,4428.2424238,733.575757502,4178.39393898,535.757575704,4338.60606017,1850.42424224,4966.57575708,2864.24242396,3979.03030263,3618.42424206,4428.2424238,4.1212121208,4202.09090867,12.3636363624,4843.45454497,12.3636363624,4381.36363593,3836.84848446,42.0,42.0,?
2017-06-01 18:07:34.869308,4532.81818136,12.3636363624,4214.96969655,8.2424242416,3912.57575718,12.3636363624,3908.96969658,4038.78787838,4289.66666624,177.212121194,4424.12121168,733.575757502,4179.42424201,535.757575704,4341.18181775,1850.42424224,4966.57575708,2864.24242396,3986.75757536,3618.42424206,4426.18181774,4.1212121208,4196.424242,12.3636363624,4839.84848436,12.3636363624,4384.96969653,3836.84848446,42.0,42.0,?
2017-06-01 18:07:34.875441,4541.57575712,12.3636363624,4219.09090867,8.2424242416,3920.30302991,12.3636363624,3898.66666628,4038.78787838,4290.69696927,177.212121194,4430.30302986,733.575757502,4185.60606019,535.757575704,4342.21212078,1850.42424224,4990.78787829,2864.24242396,3987.27272687,3618.42424206,4427.72727228,4.1212121208,4198.99999958,12.3636363624,4840.36363588,12.3636363624,4386.51515108,3836.84848446,42.0,42.0,?
2017-06-01 18:07:34.883483,4541.57575712,12.3636363624,4222.18181776,8.2424242416,3920.30302991,12.3636363624,3885.27272688,4038.78787838,4291.7272723,177.212121194,4435.45454501,733.575757502,4185.60606019,535.757575704,4346.3333329,1850.42424224,5000.06060556,2864.24242396,3985.72727233,3618.42424206,4427.21212077,4.1212121208,4204.15151473,12.3636363624,4839.84848436,12.3636363624,4387.54545411,3836.84848446,42.0,42.0,?
2017-06-01 18:07:34.891901,4534.36363591,12.3636363624,4219.60606018,8.2424242416,3915.66666628,12.3636363624,3894.54545416,4038.78787838,4291.7272723,177.212121194,4432.36363592,733.575757502,4180.96969655,535.757575704,4346.84848441,1850.42424224,4987.18181768,2864.24242396,3986.24242384,3618.42424206,4428.2424238,4.1212121208,4203.63636322,12.3636363624,4842.93939346,12.3636363624,4388.57575714,3836.84848446,42.0,42.0,?
2017-06-01 18:07:34.899479,4541.57575712,12.3636363624,4220.1212117,8.2424242416,3916.69696931,12.3636363624,3902.7878784,4038.78787838,4287.09090866,177.212121194,4429.78787834,733.575757502,4176.84848443,535.757575704,4336.54545411,1850.42424224,4982.03030253,2864.24242396,3976.96969657,3618.42424206,4428.2424238,4.1212121208,4201.06060564,12.3636363624,4843.96969649,12.3636363624,4382.90909047,3836.84848446,42.0,42.0,?
2017-06-01 18:07:34.909273,4537.454545,12.3636363624,4218.06060564,8.2424242416,3915.66666628,12.3636363624,3901.75757537,4038.78787838,4281.93939351,177.212121194,4426.18181774,733.575757502,4175.30302989,535.757575704,4334.99999957,1850.42424224,4978.42424193,2864.24242396,3968.72727233,3618.42424206,4427.72727228,4.1212121208,4201.57575716,12.3636363624,4837.7878783,12.3636363624,4376.72727229,3836.84848446,42.0,42.0,?
2017-06-01 18:07:34.915051,4542.60606015,12.3636363624,4220.63636321,8.2424242416,3919.27272688,12.3636363624,3898.15151476,4038.78787838,4275.24242381,177.212121194,4422.57575713,733.575757502,4176.84848443,535.757575704,4336.54545411,1850.42424224,4974.30302981,2864.24242396,3971.30302991,3618.42424206,4431.33333289,4.1212121208,4201.57575716,12.3636363624,4841.39393891,12.3636363624,4372.09090865,3836.84848446,42.0,42.0,?
2017-06-01 18:07:34.922377,4544.1515147,12.3636363624,4218.57575715,8.2424242416,3920.30302991,12.3636363624,3884.24242385,4038.78787838,4278.33333291,177.212121194,4424.63636319,733.575757502,4182.5151511,535.757575704,4334.99999957,1850.42424224,4983.57575708,2864.24242396,3984.6969693,3618.42424206,4430.81818138,4.1212121208,4202.60606019,12.3636363624,4843.96969649,12.3636363624,4372.09090865,3836.84848446,42.0,42.0,?
2017-06-01 18:07:34.931267,4536.93939349,12.3636363624,4214.96969655,8.2424242416,3916.69696931,12.3636363624,3875.4848481,4038.78787838,4282.96969654,177.212121194,4430.30302986,733.575757502,4190.24242382,535.757575704,4346.3333329,1850.42424224,4988.21212071,2864.24242396,3989.84848445,3618.42424206,4428.75757531,4.1212121208,4204.66666625,12.3636363624,4839.84848436,12.3636363624,4377.2424238,3836.84848446,42.0,42.0,?
2017-06-01 18:07:34.938971,4545.18181773,12.3636363624,4220.1212117,8.2424242416,3917.72727234,12.3636363624,3889.90909052,4038.78787838,4275.75757533,177.212121194,4429.27272683,733.575757502,4191.27272685,535.757575704,4358.69696926,1850.42424224,4990.78787829,2864.24242396,3984.6969693,3618.42424206,4428.2424238,4.1212121208,4202.60606019,12.3636363624,4842.93939346,12.3636363624,4382.90909047,3836.84848446,42.0,42.0,?
2017-06-01 18:07:34.947120,4536.93939349,12.3636363624,4220.1212117,8.2424242416,3917.21212082,12.3636363624,3894.54545416,4038.78787838,4279.36363594,177.212121194,4424.63636319,733.575757502,4193.84848443,535.757575704,4362.30302987,1850.42424224,5009.84848435,2864.24242396,3989.33333293,3618.42424206,4427.21212077,4.1212121208,4201.57575716,12.3636363624,4843.45454497,12.3636363624,4389.60606017,3836.84848446,42.0,42.0,?
2017-06-01 18:07:34.958070,4534.36363591,12.3636363624,4219.60606018,8.2424242416,3918.24242385,12.3636363624,3887.33333294,4038.78787838,4291.21212078,177.212121194,4431.33333289,733.575757502,4196.93939352,535.757575704,4360.75757532,1850.42424224,5002.63636314,2864.24242396,3998.09090869,3618.42424206,4428.75757531,4.1212121208,4202.09090867,12.3636363624,4841.39393891,12.3636363624,4389.09090865,3836.84848446,42.0,42.0,?
2017-06-01 18:07:34.964604,4540.54545409,12.3636363624,4218.57575715,8.2424242416,3918.24242385,12.3636363624,3903.81818143,4038.78787838,4290.69696927,177.212121194,4439.57575713,733.575757502,4192.30302988,535.757575704,4353.03030259,1850.42424224,4978.93939344,2864.24242396,3995.51515112,3618.42424206,4428.75757531,4.1212121208,4202.60606019,12.3636363624,4841.39393891,12.3636363624,4385.48484805,3836.84848446,42.0,42.0,?
2017-06-01 18:07:34.970998,4534.87878743,12.3636363624,4217.03030261,8.2424242416,3916.69696931,12.3636363624,3912.06060567,4038.78787838,4283.99999957,177.212121194,4432.87878744,733.575757502,4184.57575716,535.757575704,4341.69696926,1850.42424224,4972.75757526,2864.24242396,3980.57575718,3618.42424206,4427.21212077,4.1212121208,4203.1212117,12.3636363624,4842.93939346,12.3636363624,4387.03030259,3836.84848446,42.0,42.0,?
2017-06-01 18:07:34.979275,4540.54545409,12.3636363624,4221.66666624,8.2424242416,3918.75757537,12.3636363624,3892.99999961,4038.78787838,4280.90909048,177.212121194,4423.60606016,733.575757502,4179.93939352,535.757575704,4333.96969654,1850.42424224,4971.21212072,2864.24242396,3979.03030263,3618.42424206,4427.72727228,4.1212121208,4202.60606019,12.3636363624,4842.42424194,12.3636363624,4383.42424199,3836.84848446,42.0,42.0,?
2017-06-01 18:07:34.985998,4538.99999955,12.3636363624,4219.60606018,8.2424242416,3916.69696931,12.3636363624,3895.57575719,4038.78787838,4281.424242,177.212121194,4422.57575713,733.575757502,4178.39393898,535.757575704,4331.39393896,1850.42424224,4980.9999995,2864.24242396,4001.18181778,3618.42424206,4428.2424238,4.1212121208,4203.1212117,12.3636363624,4840.36363588,12.3636363624,4376.21212077,3836.84848446,42.0,42.0,?
2017-06-01 18:07:34.994256,4539.51515106,12.3636363624,4220.1212117,8.2424242416,3916.69696931,12.3636363624,3900.21212082,4038.78787838,4277.30302988,177.212121194,4422.57575713,733.575757502,4177.36363595,535.757575704,4332.93939351,1850.42424224,4990.78787829,2864.24242396,3991.39393899,3618.42424206,4430.81818138,4.1212121208,4203.1212117,12.3636363624,4843.45454497,12.3636363624,4374.66666623,3836.84848446,42.0,42.0,?
2017-06-01 18:07:35.001180,4542.09090864,12.3636363624,4220.1212117,8.2424242416,3917.21212082,12.3636363624,3883.21212082,4038.78787838,4275.24242381,177.212121194,4422.06060562,733.575757502,4179.42424201,535.757575704,4344.27272684,1850.42424224,4980.9999995,2864.24242396,3959.45454506,3618.42424206,4430.81818138,4.1212121208,4203.1212117,12.3636363624,4844.99999952,12.3636363624,4375.69696926,3836.84848446,42.0,42.0,?
2017-06-01 18:07:35.010465,4537.454545,12.3636363624,4217.03030261,8.2424242416,3914.63636324,12.3636363624,3886.30302991,4038.78787838,4281.424242,177.212121194,4425.15151471,733.575757502,4183.54545413,535.757575704,4353.54545411,1850.42424224,4977.90909041,2864.24242396,3970.27272688,3618.42424206,4427.72727228,4.1212121208,4203.1212117,12.3636363624,4841.90909042,12.3636363624,4375.69696926,3836.84848446,42.0,42.0,?
2017-06-01 18:07:35.017183,4546.21212076,12.3636363624,4221.66666624,8.2424242416,3918.75757537,12.3636363624,3896.60606022,4038.78787838,4284.51515109,177.212121194,4429.78787834,733.575757502,4185.09090867,535.757575704,4345.81818138,1850.42424224,4991.81818132,2864.24242396,3993.96969657,3618.42424206,4428.2424238,4.1212121208,4203.1212117,12.3636363624,4844.484848,12.3636363624,4371.57575714,3836.84848446,42.0,42.0,?
2017-06-01 18:07:35.025888,4538.99999955,12.3636363624,4220.63636321,8.2424242416,3919.7878784,12.3636363624,3886.81818143,4038.78787838,4286.57575715,177.212121194,4431.33333289,733.575757502,4185.60606019,535.757575704,4343.24242381,1850.42424224,5000.57575708,2864.24242396,3993.45454506,3618.42424206,4430.30302986,4.1212121208,4203.1212117,12.3636363624,4843.45454497,12.3636363624,4375.69696926,3836.84848446,42.0,42.0,?
2017-06-01 18:07:35.033202,4536.93939349,12.3636363624,4220.63636321,8.2424242416,3918.24242385,12.3636363624,3884.24242385,4038.78787838,4288.63636321,177.212121194,4429.27272683,733.575757502,4186.1212117,535.757575704,4347.36363593,1850.42424224,4991.3030298,2864.24242396,3995.51515112,3618.42424206,4429.27272683,4.1212121208,4203.1212117,12.3636363624,4842.93939346,12.3636363624,4384.96969653,3832.72727234,42.0,42.0,?
2017-06-01 18:07:35.039411,4544.66666621,12.3636363624,4222.69696927,8.2424242416,3918.24242385,0.0,3895.06060567,4038.78787838,4280.39393897,177.212121194,4426.18181774,733.575757502,4180.96969655,535.757575704,4341.69696926,1850.42424224,4973.78787829,2864.24242396,3998.09090869,3618.42424206,4428.75757531,4.1212121208,4202.60606019,12.3636363624,4844.99999952,12.3636363624,4380.84848441,3832.72727234,42.0,42.0,?
2017-06-01 18:07:35.048836,4536.93939349,12.3636363624,4218.57575715,8.2424242416,3916.18181779,0.0,3894.03030264,4051.15151475,4271.12121169,177.212121194,4421.5454541,733.575757502,4175.30302989,535.757575704,4338.09090866,1850.42424224,4980.48484799,2864.24242396,3992.42424203,3618.42424206,4431.33333289,4.1212121208,4201.57575716,12.3636363624,4841.90909042,12.3636363624,4370.03030259,3832.72727234,42.0,42.0,?
2017-06-01 18:07:35.056583,4545.69696924,12.3636363624,4221.66666624,8.2424242416,3918.75757537,0.0,3881.66666628,4051.15151475,4268.54545412,164.848484832,4417.9393935,733.575757502,4178.39393898,535.757575704,4337.57575714,1850.42424224,4992.33333283,2864.24242396,3989.84848445,3618.42424206,4430.81818138,4.1212121208,4202.09090867,12.3636363624,4840.87878739,12.3636363624,4368.99999956,3832.72727234,42.0,42.0,?
2017-06-01 18:07:35.065619,4546.21212076,12.3636363624,4221.66666624,8.2424242416,3917.21212082,0.0,3878.57575719,4051.15151475,4274.21212078,164.848484832,4421.5454541,737.696969623,4183.54545413,535.757575704,4337.57575714,1850.42424224,4977.90909041,2864.24242396,3990.36363596,3618.42424206,4428.2424238,4.1212121208,4202.09090867,12.3636363624,4840.36363588,12.3636363624,4373.12121168,3832.72727234,42.0,42.0,?
2017-06-01 18:07:35.072313,4536.42424197,12.3636363624,4219.60606018,8.2424242416,3916.69696931,0.0,3882.18181779,4051.15151475,4278.33333291,164.848484832,4427.21212077,737.696969623,4185.09090867,535.757575704,4340.66666623,1850.42424224,4968.63636314,2864.24242396,3977.48484809,3618.42424206,4429.27272683,4.1212121208,4202.09090867,12.3636363624,4841.39393891,12.3636363624,4367.96969653,3832.72727234,42.0,42.0,?
2017-06-01 18:07:35.081581,4541.57575712,12.3636363624,4220.63636321,8.2424242416,3920.30302991,0.0,3889.90909052,4051.15151475,4275.24242381,164.848484832,4426.69696925,737.696969623,4185.60606019,535.757575704,4341.69696926,1850.42424224,4982.54545405,2864.24242396,3975.42424203,3618.42424206,4429.78787834,4.1212121208,4203.63636322,12.3636363624,4843.45454497,12.3636363624,4365.39393896,3832.72727234,42.0,42.0,?
2017-06-01 18:07:35.086706,4536.42424197,12.3636363624,4217.03030261,8.2424242416,3918.24242385,0.0,3897.12121173,4051.15151475,4275.24242381,164.848484832,4425.66666622,737.696969623,4187.15151473,535.757575704,4341.18181775,1850.42424224,4992.33333283,2864.24242396,3989.84848445,3618.42424206,4427.21212077,4.1212121208,4202.60606019,12.3636363624,4839.33333285,12.3636363624,4374.66666623,3832.72727234,42.0,42.0,?
2017-06-01 18:07:35.094532,4538.48484803,12.3636363624,4220.1212117,8.2424242416,3918.24242385,0.0,3890.42424204,4051.15151475,4280.39393897,164.848484832,4427.21212077,737.696969623,4186.63636322,535.757575704,4342.72727229,1850.42424224,4975.84848435,2864.24242396,3992.42424203,3618.42424206,4427.21212077,4.1212121208,4202.09090867,12.3636363624,4840.36363588,12.3636363624,4375.18181774,3832.72727234,42.0,42.0,?
2017-06-01 18:07:35.104419,4542.09090864,12.3636363624,4219.09090867,8.2424242416,3917.72727234,0.0,3897.12121173,4051.15151475,4285.54545412,164.848484832,4425.15151471,737.696969623,4190.24242382,535.757575704,4352.51515108,1850.42424224,4975.33333284,2864.24242396,3994.9999996,3618.42424206,4429.27272683,8.2424242416,4203.1212117,12.3636363624,4843.45454497,12.3636363624,4372.60606017,3832.72727234,42.0,42.0,?
2017-06-01 18:07:35.113670,4537.454545,12.3636363624,4217.03030261,8.2424242416,3918.24242385,0.0,3898.15151476,4051.15151475,4286.06060563,164.848484832,4426.18181774,737.696969623,4195.90909049,535.757575704,4356.12121169,1850.42424224,4993.36363586,2864.24242396,4007.36363596,3618.42424206,4429.27272683,8.2424242416,4202.09090867,0.0,4841.90909042,12.3636363624,4378.78787835,3832.72727234,42.0,42.0,?
2017-06-01 18:07:35.122718,4540.54545409,12.3636363624,4221.15151473,8.2424242416,3920.81818143,0.0,3869.81818143,4051.15151475,4282.96969654,164.848484832,4429.27272683,737.696969623,4192.8181814,535.757575704,4349.42424199,1850.42424224,4988.21212071,2864.24242396,4009.42424202,3618.42424206,4428.75757531,8.2424242416,4200.54545413,0.0,4840.36363588,8.2424242416,4381.36363593,3832.72727234,42.0,42.0,?
2017-06-01 18:07:35.127910,4537.454545,12.3636363624,4219.60606018,8.2424242416,3914.12121173,0.0,3869.81818143,4051.15151475,4282.45454503,164.848484832,4424.12121168,737.696969623,4188.18181776,535.757575704,4348.90909047,1850.42424224,4987.18181768,2864.24242396,4000.66666627,3610.18181782,4428.75757531,8.2424242416,4202.09090867,0.0,4840.87878739,8.2424242416,4379.81818138,3832.72727234,42.0,42.0,?
2017-06-01 18:07:35.134548,4541.57575712,12.3636363624,4220.1212117,8.2424242416,3913.60606021,0.0,3907.42424203,4051.15151475,4279.36363594,164.848484832,4418.96969653,737.696969623,4190.75757534,535.757575704,4355.60606017,1850.42424224,5008.81818132,2864.24242396,3996.03030263,3610.18181782,4429.27272683,8.2424242416,4203.1212117,0.0,4842.93939346,8.2424242416,4383.42424199,3832.72727234,42.0,42.0,?
2017-06-01 18:07:35.142038,4542.60606015,12.3636363624,4218.57575715,8.2424242416,3917.72727234,0.0,3905.87878749,4051.15151475,4276.27272685,164.848484832,4421.03030259,737.696969623,4193.84848443,535.757575704,4356.12121169,1850.42424224,5014.9999995,2864.24242396,4005.3030299,3610.18181782,4427.72727228,8.2424242416,4202.09090867,0.0,4842.93939346,8.2424242416,4390.6363632,3832.72727234,42.0,42.0,?
2017-06-01 18:07:35.149486,4537.96969652,12.3636363624,4215.99999958,8.2424242416,3916.69696931,0.0,3862.60606022,4051.15151475,4277.30302988,164.848484832,4425.15151471,737.696969623,4193.84848443,535.757575704,4350.96969653,1850.42424224,4992.33333283,2864.24242396,4011.9999996,3610.18181782,4427.21212077,8.2424242416,4202.60606019,0.0,4841.90909042,8.2424242416,4393.72727229,3832.72727234,42.0,42.0,?
2017-06-01 18:07:35.158092,4546.21212076,12.3636363624,4220.1212117,8.2424242416,3917.21212082,0.0,3868.7878784,4051.15151475,4276.78787836,164.848484832,4426.69696925,737.696969623,4191.27272685,535.757575704,4349.9393935,1850.42424224,4986.66666617,2864.24242396,4002.21212081,3610.18181782,4429.78787834,8.2424242416,4203.1212117,0.0,4844.484848,8.2424242416,4390.12121168,3832.72727234,42.0,42.0,?
2017-06-01 18:07:35.165861,4536.93939349,12.3636363624,4217.03030261,8.2424242416,3917.21212082,0.0,3920.30302991,4051.15151475,4278.33333291,164.848484832,4427.21212077,737.696969623,4190.24242382,535.757575704,4350.45454502,1850.42424224,5004.18181768,2864.24242396,4001.6969693,3610.18181782,4430.30302986,8.2424242416,4202.09090867,0.0,4841.90909042,8.2424242416,4384.45454502,3832.72727234,42.0,42.0,?
2017-06-01 18:07:35.174044,4536.42424197,12.3636363624,4218.57575715,8.2424242416,3918.75757537,0.0,3913.0909087,4051.15151475,4279.87878745,164.848484832,4427.72727228,737.696969623,4191.27272685,535.757575704,4344.78787835,1850.42424224,4990.27272677,2864.24242396,4009.93939354,3610.18181782,4429.27272683,8.2424242416,4202.60606019,0.0,4841.39393891,8.2424242416,4374.15151471,3832.72727234,42.0,42.0,?
2017-06-01 18:07:35.181605,4542.09090864,12.3636363624,4221.66666624,8.2424242416,3917.72727234,0.0,3869.30302992,4051.15151475,4284.51515109,164.848484832,4425.66666622,737.696969623,4193.33333291,535.757575704,4344.27272684,1850.42424224,4970.18181768,2864.24242396,3995.51515112,3610.18181782,4429.27272683,8.2424242416,4203.1212117,0.0,4842.93939346,8.2424242416,4369.51515108,3832.72727234,42.0,42.0,?
2017-06-01 18:07:35.190284,4531.27272682,12.3636363624,4218.06060564,8.2424242416,3914.12121173,0.0,3875.99999961,4051.15151475,4288.63636321,164.848484832,4424.12121168,737.696969623,4190.75757534,535.757575704,4351.99999956,1850.42424224,4987.6969692,2864.24242396,3983.66666627,3610.18181782,4431.33333289,8.2424242416,4202.09090867,0.0,4841.90909042,8.2424242416,4373.6363632,3832.72727234,42.0,42.0,?
2017-06-01 18:07:35.197600,4538.99999955,12.3636363624,4220.1212117,8.2424242416,3916.18181779,0.0,3902.7878784,4051.15151475,4283.99999957,164.848484832,4425.15151471,737.696969623,4189.21212079,535.757575704,4354.06060563,1850.42424224,5004.18181768,2864.24242396,4001.18181778,3610.18181782,4431.84848441,8.2424242416,4202.09090867,0.0,4843.96969649,8.2424242416,4376.21212077,3832.72727234,42.0,42.0,?
2017-06-01 18:07:35.205314,4539.51515106,12.3636363624,4218.06060564,8.2424242416,3917.21212082,0.0,3905.36363597,4051.15151475,4286.57575715,164.848484832,4426.69696925,737.696969623,4194.36363594,535.757575704,4353.54545411,1850.42424224,4991.81818132,2864.24242396,4017.66666626,3610.18181782,4430.30302986,8.2424242416,4203.1212117,0.0,4842.93939346,8.2424242416,4381.36363593,3832.72727234,42.0,42.0,?
2017-06-01 18:07:35.213097,4536.42424197,12.3636363624,4219.09090867,8.2424242416,3918.24242385,0.0,3900.72727234,4051.15151475,4281.93939351,164.848484832,4425.66666622,737.696969623,4194.36363594,535.757575704,4350.96969653,1850.42424224,4978.93939344,2864.24242396,3998.09090869,3610.18181782,4430.81818138,8.2424242416,4203.1212117,0.0,4842.93939346,8.2424242416,4380.84848441,3832.72727234,42.0,42.0,?
2017-06-01 18:07:35.219900,4542.09090864,12.3636363624,4221.66666624,8.2424242416,3917.21212082,0.0,3887.33333294,4051.15151475,4266.48484806,164.848484832,4421.5454541,737.696969623,4192.30302988,535.757575704,4343.75757532,1850.42424224,4983.06060556,2864.24242396,3983.15151475,3610.18181782,4429.27272683,8.2424242416,4202.60606019,0.0,4843.45454497,8.2424242416,4375.69696926,3832.72727234,42.0,42.0,?
2017-06-01 18:07:35.227475,4533.8484844,12.3636363624,4216.51515109,8.2424242416,3914.63636324,0.0,3869.81818143,4051.15151475,4270.60606018,164.848484832,4423.60606016,737.696969623,4195.90909049,535.757575704,4348.39393896,1850.42424224,4974.30302981,2864.24242396,4005.81818142,3610.18181782,4427.21212077,8.2424242416,4202.09090867,0.0,4840.36363588,8.2424242416,4382.39393896,3832.72727234,42.0,42.0,?
2017-06-01 18:07:35.237614,4540.03030258,12.3636363624,4219.09090867,8.2424242416,3919.27272688,0.0,3877.03030264,4051.15151475,4286.57575715,164.848484832,4431.33333289,737.696969623,4194.36363594,535.757575704,4351.48484805,1850.42424224,4960.90909041,2864.24242396,4004.78787839,3610.18181782,4429.78787834,8.2424242416,4201.06060564,0.0,4840.36363588,8.2424242416,4381.87878744,3832.72727234,42.0,42.0,?
2017-06-01 18:07:35.244286,4541.57575712,12.3636363624,4220.1212117,8.2424242416,3918.75757537,0.0,3898.66666628,4051.15151475,4289.15151472,164.848484832,4431.33333289,737.696969623,4191.27272685,535.757575704,4352.51515108,1850.42424224,4978.93939344,2864.24242396,3984.6969693,3610.18181782,4430.30302986,8.2424242416,4202.09090867,0.0,4839.33333285,8.2424242416,4371.57575714,3832.72727234,42.0,42.0,?
2017-06-01 18:07:35.253181,4536.93939349,12.3636363624,4219.60606018,8.2424242416,3917.72727234,0.0,3902.27272688,4051.15151475,4279.36363594,164.848484832,4425.66666622,737.696969623,4192.30302988,535.757575704,4352.51515108,1850.42424224,5001.60606011,2864.24242396,3995.51515112,3610.18181782,4428.2424238,8.2424242416,4203.1212117,0.0,4839.33333285,8.2424242416,4375.69696926,3832.72727234,42.0,42.0,?
2017-06-01 18:07:35.259251,4540.03030258,12.3636363624,4219.09090867,8.2424242416,3918.24242385,0.0,3899.18181779,4051.15151475,4276.78787836,164.848484832,4426.18181774,737.696969623,4195.39393897,535.757575704,4346.84848441,1850.42424224,5004.18181768,2864.24242396,4011.9999996,3610.18181782,4428.2424238,8.2424242416,4202.09090867,0.0,4839.33333285,8.2424242416,4388.06060562,3832.72727234,42.0,42.0,?
2017-06-01 18:07:35.266564,4533.33333288,12.3636363624,4217.03030261,8.2424242416,3914.63636324,0.0,3894.54545416,4051.15151475,4283.48484806,164.848484832,4427.72727228,737.696969623,4197.96969655,535.757575704,4350.45454502,1850.42424224,5002.12121162,2864.24242396,4015.09090869,3610.18181782,4431.33333289,8.2424242416,4202.09090867,0.0,4836.75757527,8.2424242416,4393.21212077,3832.72727234,42.0,42.0,?
2017-06-01 18:07:35.276181,4544.66666621,12.3636363624,4222.18181776,8.2424242416,3918.24242385,0.0,3889.393939,4051.15151475,4282.96969654,164.848484832,4428.2424238,737.696969623,4196.424242,535.757575704,4349.9393935,1850.42424224,4997.48484799,2864.24242396,4016.63636323,3610.18181782,4432.87878744,8.2424242416,4202.60606019,0.0,4841.39393891,8.2424242416,4388.06060562,3832.72727234,42.0,42.0,?
2017-06-01 18:07:35.286777,4545.69696924,12.3636363624,4219.09090867,8.2424242416,3919.27272688,0.0,3895.57575719,4051.15151475,4279.36363594,164.848484832,4427.72727228,737.696969623,4193.33333291,535.757575704,4343.75757532,1850.42424224,4986.15151465,2864.24242396,4010.45454505,3610.18181782,4430.30302986,8.2424242416,4203.1212117,0.0,4840.36363588,8.2424242416,4379.81818138,3832.72727234,42.0,42.0,?
2017-06-01 18:07:35.292638,4531.78787833,12.3636363624,4215.48484806,8.2424242416,3915.66666628,0.0,3893.51515113,4051.15151475,4275.75757533,164.848484832,4424.12121168,737.696969623,4194.87878746,535.757575704,4347.87878744,1850.42424224,4975.84848435,2864.24242396,4008.90909051,3610.18181782,4431.33333289,8.2424242416,4203.1212117,0.0,4836.75757527,8.2424242416,4378.78787835,3832.72727234,42.0,42.0,?
2017-06-01 18:07:35.299089,4536.93939349,12.3636363624,4219.60606018,8.2424242416,3917.21212082,0.0,3879.0909087,4051.15151475,4276.78787836,164.848484832,4426.18181774,737.696969623,4197.96969655,535.757575704,4353.03030259,1850.42424224,4973.27272678,2864.24242396,4021.27272687,3610.18181782,4432.36363592,8.2424242416,4202.09090867,0.0,4841.39393891,8.2424242416,4384.45454502,3832.72727234,42.0,42.0,?
2017-06-01 18:07:35.305491,4537.454545,12.3636363624,4216.51515109,8.2424242416,3916.69696931,0.0,3884.75757537,4051.15151475,4282.45454503,164.848484832,4434.42424198,737.696969623,4199.5151511,535.757575704,4351.48484805,1850.42424224,4984.60606011,2864.24242396,4018.6969693,3610.18181782,4428.75757531,8.2424242416,4202.09090867,0.0,4842.42424194,8.2424242416,4387.54545411,3832.72727234,42.0,42.0,?
2017-06-01 18:07:35.313462,4543.63636318,12.3636363624,4219.09090867,8.2424242416,3918.75757537,0.0,3883.21212082,4051.15151475,4280.90909048,164.848484832,4433.90909047,737.696969623,4196.424242,535.757575704,4352.51515108,1850.42424224,4995.93939344,2864.24242396,4002.72727233,3610.18181782,4428.2424238,8.2424242416,4203.63636322,0.0,4842.93939346,8.2424242416,4386.51515108,3832.72727234,42.0,42.0,?
2017-06-01 18:07:35.323172,4543.12121167,12.3636363624,4220.63636321,8.2424242416,3918.24242385,0.0,3875.99999961,4051.15151475,4278.33333291,164.848484832,4426.18181774,737.696969623,4195.90909049,535.757575704,4356.12121169,1850.42424224,4995.93939344,2864.24242396,4010.45454505,3610.18181782,4429.78787834,8.2424242416,4202.60606019,0.0,4843.45454497,8.2424242416,4393.21212077,3832.72727234,42.0,42.0,?
2017-06-01 18:07:35.331329,4531.27272682,12.3636363624,4219.09090867,8.2424242416,3915.15151476,0.0,3908.96969658,4051.15151475,4281.93939351,164.848484832,4425.15151471,737.696969623,4200.54545413,535.757575704,4354.57575714,1850.42424224,4993.87878738,2864.24242396,4028.9999996,3610.18181782,4429.27272683,8.2424242416,4200.54545413,0.0,4842.93939346,8.2424242416,4400.9393935,3832.72727234,42.0,42.0,?
2017-06-01 18:07:35.338300,4541.57575712,12.3636363624,4221.66666624,8.2424242416,3919.27272688,0.0,3922.36363597,4051.15151475,4278.84848442,164.848484832,4427.72727228,737.696969623,4198.99999958,535.757575704,4349.42424199,1850.42424224,4990.27272677,2864.24242396,4030.54545414,3610.18181782,4428.2424238,8.2424242416,4201.06060564,0.0,4843.45454497,8.2424242416,4395.78787835,3832.72727234,42.0,42.0,?
2017-06-01 18:07:35.346446,4540.54545409,12.3636363624,4217.54545412,8.2424242416,3917.72727234,0.0,3894.54545416,4051.15151475,4274.21212078,164.848484832,4426.18181774,737.696969623,4192.8181814,535.757575704,4349.9393935,1850.42424224,4988.72727223,2864.24242396,4022.81818142,3610.18181782,4429.27272683,8.2424242416,4202.60606019,0.0,4841.90909042,8.2424242416,4390.6363632,3832.72727234,42.0,42.0,?
2017-06-01 18:07:35.353069,4537.454545,12.3636363624,4216.51515109,8.2424242416,3916.18181779,0.0,3888.36363597,4051.15151475,4281.424242,164.848484832,4427.72727228,737.696969623,4195.39393897,535.757575704,4356.6363632,1850.42424224,4994.39393889,2864.24242396,4014.06060566,3610.18181782,4431.33333289,8.2424242416,4202.60606019,0.0,4842.42424194,8.2424242416,4389.60606017,3832.72727234,42.0,42.0,?
2017-06-01 18:07:35.360893,4537.454545,12.3636363624,4220.1212117,8.2424242416,3917.21212082,0.0,3911.54545415,4051.15151475,4289.66666624,164.848484832,4429.78787834,737.696969623,4200.03030261,535.757575704,4363.84848441,1850.42424224,4995.42424192,2864.24242396,4010.45454505,3610.18181782,4428.75757531,8.2424242416,4202.60606019,0.0,4841.39393891,8.2424242416,4392.69696926,3832.72727234,42.0,42.0,?
2017-06-01 18:07:35.368702,4532.81818136,12.3636363624,4218.06060564,8.2424242416,3916.69696931,0.0,3912.57575718,4051.15151475,4290.18181775,164.848484832,4428.75757531,737.696969623,4196.93939352,535.757575704,4360.24242381,1850.42424224,4983.06060556,2864.24242396,4016.12121172,3610.18181782,4426.69696925,8.2424242416,4201.57575716,0.0,4837.7878783,8.2424242416,4394.2424238,3832.72727234,42.0,42.0,?
2017-06-01 18:07:35.377253,4543.12121167,12.3636363624,4219.09090867,8.2424242416,3919.7878784,0.0,3875.4848481,4051.15151475,4285.0303026,164.848484832,4428.75757531,737.696969623,4193.84848443,535.757575704,4347.36363593,1850.42424224,4979.45454496,2864.24242396,4023.84848445,3610.18181782,4429.27272683,8.2424242416,4202.09090867,0.0,4839.33333285,8.2424242416,4392.18181774,3832.72727234,42.0,42.0,?
2017-06-01 18:07:35.385191,4539.51515106,12.3636363624,4219.09090867,8.2424242416,3919.27272688,0.0,3866.21212083,4051.15151475,4281.93939351,164.848484832,4428.2424238,737.696969623,4196.93939352,535.757575704,4345.30302987,1850.42424224,5001.60606011,2864.24242396,4027.45454505,3610.18181782,4426.69696925,8.2424242416,4204.15151473,0.0,4841.90909042,8.2424242416,4394.2424238,3832.72727234,42.0,42.0,?
2017-06-01 18:07:35.391785,4538.99999955,12.3636363624,4220.1212117,8.2424242416,3919.27272688,0.0,3891.45454507,4051.15151475,4278.84848442,164.848484832,4428.75757531,737.696969623,4196.424242,535.757575704,4344.78787835,1850.42424224,5005.72727223,2864.24242396,4017.66666626,3610.18181782,4425.15151471,8.2424242416,4203.1212117,0.0,4842.93939346,8.2424242416,4390.6363632,3832.72727234,42.0,42.0,?
2017-06-01 18:07:35.399480,4543.63636318,12.3636363624,4217.54545412,8.2424242416,3919.27272688,0.0,3885.7878784,4051.15151475,4274.7272723,164.848484832,4430.81818138,737.696969623,4188.18181776,535.757575704,4338.60606017,1850.42424224,4976.87878738,2864.24242396,4005.3030299,3610.18181782,4428.75757531,8.2424242416,4202.09090867,0.0,4841.39393891,8.2424242416,4380.3333329,3832.72727234,42.0,42.0,?
2017-06-01 18:07:35.408179,4534.36363591,12.3636363624,4213.424242,8.2424242416,3914.12121173,0.0,3868.7878784,4051.15151475,4271.63636321,164.848484832,4432.36363592,737.696969623,4184.06060564,535.757575704,4336.0303026,1850.42424224,4965.54545405,2864.24242396,4003.24242384,3610.18181782,4429.27272683,8.2424242416,4202.60606019,0.0,4837.7878783,8.2424242416,4372.60606017,3832.72727234,42.0,42.0,?
2017-06-01 18:07:35.419308,4540.54545409,12.3636363624,4219.60606018,8.2424242416,3915.66666628,0.0,3887.33333294,4051.15151475,4270.60606018,164.848484832,4430.81818138,737.696969623,4189.21212079,535.757575704,4338.09090866,1850.42424224,4980.9999995,2864.24242396,4004.78787839,3610.18181782,4427.72727228,8.2424242416,4203.1212117,0.0,4839.84848436,8.2424242416,4366.9393935,3832.72727234,42.0,42.0,?
2017-06-01 18:07:35.423454,4539.51515106,12.3636363624,4219.09090867,8.2424242416,3916.69696931,0.0,3907.42424203,4051.15151475,4278.33333291,164.848484832,4428.2424238,737.696969623,4194.36363594,535.757575704,4345.81818138,1850.42424224,4983.06060556,2864.24242396,4008.39393899,3610.18181782,4429.27272683,8.2424242416,4203.1212117,0.0,4841.39393891,8.2424242416,4373.12121168,3832.72727234,42.0,42.0,?
2017-06-01 18:07:35.431894,4535.39393894,12.3636363624,4218.06060564,8.2424242416,3915.15151476,0.0,3897.12121173,4051.15151475,4282.45454503,164.848484832,4425.66666622,737.696969623,4194.87878746,535.757575704,4349.9393935,1850.42424224,4968.63636314,2864.24242396,4015.09090869,3610.18181782,4430.81818138,8.2424242416,4202.60606019,0.0,4840.87878739,8.2424242416,4383.9393935,3832.72727234,42.0,42.0,?
2017-06-01 18:07:35.443822,4541.06060561,12.3636363624,4221.15151473,8.2424242416,3915.66666628,0.0,3894.03030264,4051.15151475,4282.96969654,164.848484832,4423.60606016,737.696969623,4195.90909049,535.757575704,4345.30302987,1850.42424224,4973.78787829,2864.24242396,4015.09090869,3610.18181782,4427.21212077,8.2424242416,4201.57575716,0.0,4840.36363588,8.2424242416,4383.42424199,3832.72727234,42.0,42.0,?
2017-06-01 18:07:35.448481,4534.36363591,12.3636363624,4218.57575715,8.2424242416,3916.18181779,0.0,3910.51515112,4051.15151475,4284.51515109,164.848484832,4427.21212077,737.696969623,4201.06060564,535.757575704,4344.27272684,1850.42424224,4998.51515102,2864.24242396,4017.15151475,3610.18181782,4425.66666622,8.2424242416,4200.54545413,0.0,4838.30302982,8.2424242416,4387.54545411,3832.72727234,42.0,42.0,?
2017-06-01 18:07:35.454764,4541.57575712,12.3636363624,4221.66666624,8.2424242416,3919.27272688,0.0,3906.393939,4051.15151475,4279.87878745,164.848484832,4433.39393895,737.696969623,4202.09090867,535.757575704,4350.45454502,1850.42424224,4998.51515102,2864.24242396,4021.27272687,3610.18181782,4430.30302986,8.2424242416,4200.03030261,0.0,4842.93939346,8.2424242416,4395.27272683,3832.72727234,42.0,42.0,?
2017-06-01 18:07:35.464959,4542.09090864,12.3636363624,4220.63636321,8.2424242416,3916.18181779,0.0,3876.51515113,4051.15151475,4278.33333291,164.848484832,4434.42424198,737.696969623,4197.96969655,535.757575704,4355.09090866,1850.42424224,4986.15151465,2864.24242396,4023.33333293,3610.18181782,4430.30302986,8.2424242416,4202.09090867,0.0,4842.93939346,8.2424242416,4393.72727229,3832.72727234,42.0,42.0,?
2017-06-01 18:07:35.470830,4532.30302985,12.3636363624,4217.03030261,8.2424242416,3916.18181779,0.0,3863.12121173,4051.15151475,4281.93939351,164.848484832,4431.84848441,737.696969623,4193.84848443,535.757575704,4350.96969653,1850.42424224,4979.96969647,2864.24242396,4018.6969693,3610.18181782,4427.72727228,8.2424242416,4204.15151473,0.0,4839.84848436,8.2424242416,4393.21212077,3832.72727234,42.0,42.0,?
2017-06-01 18:07:35.480149,4538.99999955,12.3636363624,4220.63636321,8.2424242416,3919.27272688,0.0,3886.81818143,4051.15151475,4279.36363594,164.848484832,4429.78787834,737.696969623,4193.33333291,535.757575704,4344.27272684,1850.42424224,4980.9999995,2864.24242396,4015.09090869,3610.18181782,4429.27272683,8.2424242416,4202.09090867,0.0,4840.87878739,8.2424242416,4398.36363592,3832.72727234,42.0,42.0,?
2017-06-01 18:07:35.485478,4537.454545,12.3636363624,4218.06060564,8.2424242416,3917.21212082,0.0,3916.18181779,4051.15151475,4279.87878745,164.848484832,4430.30302986,737.696969623,4198.99999958,535.757575704,4351.48484805,1850.42424224,4998.51515102,2864.24242396,4023.33333293,3610.18181782,4430.30302986,8.2424242416,4201.06060564,0.0,4839.33333285,8.2424242416,4397.84848441,3832.72727234,42.0,42.0,?
2017-06-01 18:07:35.493986,4539.51515106,12.3636363624,4216.51515109,8.2424242416,3920.30302991,0.0,3912.57575718,4051.15151475,4282.96969654,164.848484832,4436.48484804,737.696969623,4201.57575716,535.757575704,4355.60606017,1850.42424224,4985.12121162,2864.24242396,4019.72727233,3610.18181782,4430.30302986,8.2424242416,4202.60606019,0.0,4842.42424194,8.2424242416,4389.09090865,3832.72727234,42.0,42.0,?
2017-06-01 18:07:35.502713,4540.03030258,12.3636363624,4215.99999958,8.2424242416,3920.30302991,0.0,3889.90909052,4051.15151475,4282.45454503,164.848484832,4436.48484804,737.696969623,4200.03030261,535.757575704,4346.84848441,1850.42424224,4962.96969647,2864.24242396,4011.9999996,3610.18181782,4429.27272683,8.2424242416,4202.60606019,0.0,4840.87878739,8.2424242416,4385.48484805,3832.72727234,42.0,42.0,?
2017-06-01 18:07:35.509523,4535.90909046,12.3636363624,4217.03030261,8.2424242416,3917.21212082,0.0,3875.4848481,4051.15151475,4281.93939351,164.848484832,4428.2424238,737.696969623,4200.03030261,535.757575704,4347.87878744,1850.42424224,4992.84848435,2864.24242396,4020.75757536,3610.18181782,4429.78787834,8.2424242416,4202.09090867,0.0,4835.21212073,8.2424242416,4387.03030259,3832.72727234,42.0,42.0,?
2017-06-01 18:07:35.518032,4543.63636318,12.3636363624,4220.1212117,8.2424242416,3919.7878784,0.0,3889.90909052,4051.15151475,4281.93939351,164.848484832,4429.78787834,737.696969623,4197.45454503,535.757575704,4354.57575714,1850.42424224,5014.9999995,2864.24242396,4019.21212081,3610.18181782,4428.75757531,8.2424242416,4202.60606019,0.0,4838.81818133,8.2424242416,4380.3333329,3832.72727234,42.0,42.0,?
2017-06-01 18:07:35.525604,4537.96969652,12.3636363624,4217.54545412,0.0,3916.69696931,0.0,3914.63636324,4051.15151475,4283.99999957,164.848484832,4434.42424198,737.696969623,4193.84848443,535.757575704,4354.06060563,1850.42424224,4992.84848435,2864.24242396,4011.48484808,3610.18181782,4426.69696925,8.2424242416,4203.1212117,0.0,4842.42424194,8.2424242416,4375.18181774,3832.72727234,42.0,42.0,?
2017-06-01 18:07:35.533017,4539.51515106,12.3636363624,4221.15151473,0.0,3916.69696931,0.0,3902.7878784,4051.15151475,4282.45454503,164.848484832,4432.87878744,737.696969623,4193.33333291,535.757575704,4350.45454502,1850.42424224,4981.51515102,2864.24242396,4015.09090869,3610.18181782,4427.72727228,8.2424242416,4203.63636322,0.0,4842.93939346,8.2424242416,4377.2424238,3828.60606022,42.0,42.0,?
2017-06-01 18:07:35.540820,4542.60606015,12.3636363624,4222.18181776,0.0,3918.75757537,12.3636363624,3880.63636325,4051.15151475,4279.36363594,164.848484832,4431.84848441,737.696969623,4194.36363594,535.757575704,4352.51515108,1850.42424224,4984.09090859,2864.24242396,4011.48484808,3610.18181782,4428.2424238,8.2424242416,4203.1212117,0.0,4840.36363588,8.2424242416,4383.42424199,3828.60606022,42.0,42.0,?
2017-06-01 18:07:35.550370,4534.87878743,12.3636363624,4216.51515109,0.0,3915.15151476,12.3636363624,3879.60606022,4051.15151475,4274.7272723,164.848484832,4427.72727228,737.696969623,4194.36363594,535.757575704,4353.54545411,1850.42424224,4975.84848435,2864.24242396,3999.63636324,3610.18181782,4428.75757531,8.2424242416,4203.1212117,0.0,4839.84848436,8.2424242416,4390.6363632,3828.60606022,42.0,42.0,?
2017-06-01 18:07:35.556534,4543.63636318,12.3636363624,4219.09090867,0.0,3917.21212082,12.3636363624,3881.66666628,4051.15151475,4271.12121169,173.090909074,4427.21212077,737.696969623,4193.33333291,535.757575704,4346.84848441,1850.42424224,4982.03030253,2864.24242396,3997.57575718,3610.18181782,4430.30302986,8.2424242416,4203.1212117,0.0,4843.45454497,8.2424242416,4392.18181774,3828.60606022,42.0,42.0,?
2017-06-01 18:07:35.565108,4538.99999955,12.3636363624,4217.54545412,0.0,3917.72727234,12.3636363624,3898.15151476,4051.15151475,4280.90909048,173.090909074,4432.87878744,729.454545382,4194.36363594,535.757575704,4346.84848441,1850.42424224,4999.03030253,2864.24242396,4009.42424202,3610.18181782,4429.78787834,8.2424242416,4202.60606019,0.0,4840.87878739,8.2424242416,4384.96969653,3828.60606022,42.0,42.0,?
2017-06-01 18:07:35.571407,4537.454545,12.3636363624,4217.54545412,0.0,3917.21212082,12.3636363624,3915.15151476,4051.15151475,4285.0303026,173.090909074,4431.33333289,729.454545382,4194.87878746,535.757575704,4351.99999956,1850.42424224,4983.57575708,2864.24242396,4015.6060602,3610.18181782,4430.81818138,8.2424242416,4203.1212117,0.0,4841.90909042,8.2424242416,4375.18181774,3828.60606022,42.0,42.0,?
2017-06-01 18:07:35.580736,4546.72727227,12.3636363624,4221.15151473,0.0,3917.21212082,12.3636363624,3901.75757537,4051.15151475,4277.81818139,173.090909074,4423.60606016,729.454545382,4194.36363594,535.757575704,4354.06060563,1858.66666648,4961.42424193,2864.24242396,4010.96969657,3610.18181782,4430.81818138,8.2424242416,4203.1212117,0.0,4843.45454497,8.2424242416,4372.60606017,3828.60606022,42.0,42.0,?
2017-06-01 18:07:35.588112,4536.93939349,12.3636363624,4218.57575715,0.0,3916.69696931,12.3636363624,3884.75757537,4051.15151475,4280.90909048,173.090909074,4429.78787834,729.454545382,4199.5151511,535.757575704,4356.12121169,1858.66666648,4979.45454496,2913.69696941,4006.84848445,3610.18181782,4429.27272683,8.2424242416,4202.60606019,0.0,4838.30302982,8.2424242416,4374.66666623,3828.60606022,42.0,42.0,?
2017-06-01 18:07:35.595483,4539.51515106,12.3636363624,4219.60606018,0.0,3917.72727234,12.3636363624,3885.7878784,4051.15151475,4285.54545412,173.090909074,4437.51515107,729.454545382,4205.69696928,535.757575704,4355.09090866,1858.66666648,5007.78787829,2913.69696941,4004.78787839,3618.42424206,4429.78787834,8.2424242416,4203.1212117,0.0,4841.39393891,8.2424242416,4373.12121168,3828.60606022,42.0,42.0,?
2017-06-01 18:07:35.604187,4539.51515106,12.3636363624,4217.54545412,0.0,3916.18181779,12.3636363624,3897.63636325,4051.15151475,4277.81818139,173.090909074,4432.87878744,729.454545382,4202.09090867,535.757575704,4349.42424199,1858.66666648,4995.42424192,2913.69696941,4011.48484808,3618.42424206,4428.75757531,4.1212121208,4203.1212117,0.0,4846.03030255,8.2424242416,4373.6363632,3828.60606022,42.0,42.0,?
2017-06-01 18:07:35.610869,4535.39393894,12.3636363624,4216.51515109,0.0,3918.24242385,12.3636363624,3902.7878784,4051.15151475,4274.21212078,173.090909074,4429.78787834,729.454545382,4192.30302988,535.757575704,4344.27272684,1858.66666648,4966.57575708,2913.69696941,4020.24242384,3618.42424206,4427.72727228,4.1212121208,4202.60606019,12.3636363624,4843.96969649,8.2424242416,4378.27272683,3828.60606022,42.0,42.0,?
2017-06-01 18:07:35.620408,4540.03030258,12.3636363624,4217.03030261,0.0,3919.27272688,12.3636363624,3886.81818143,4051.15151475,4281.93939351,173.090909074,4431.33333289,729.454545382,4190.75757534,535.757575704,4349.42424199,1858.66666648,4970.18181768,2913.69696941,4026.42424202,3618.42424206,4428.2424238,4.1212121208,4203.1212117,12.3636363624,4839.33333285,8.2424242416,4382.39393896,3828.60606022,42.0,42.0,?
2017-06-01 18:07:35.626923,4536.42424197,12.3636363624,4214.45454503,0.0,3914.63636324,12.3636363624,3879.60606022,4051.15151475,4282.96969654,173.090909074,4431.84848441,729.454545382,4195.90909049,535.757575704,4355.09090866,1858.66666648,4996.96969647,2913.69696941,4026.42424202,3622.54545418,4429.78787834,4.1212121208,4202.60606019,12.3636363624,4836.24242376,8.2424242416,4385.48484805,3828.60606022,42.0,42.0,?
2017-06-01 18:07:35.636220,4540.54545409,12.3636363624,4218.57575715,0.0,3918.24242385,12.3636363624,3895.57575719,4051.15151475,4265.96969654,173.090909074,4430.81818138,729.454545382,4192.30302988,535.757575704,4350.45454502,1858.66666648,4993.87878738,2913.69696941,4018.6969693,3622.54545418,4429.78787834,4.1212121208,4201.57575716,12.3636363624,4839.84848436,8.2424242416,4385.48484805,3828.60606022,42.0,42.0,?
2017-06-01 18:07:35.642905,4537.454545,12.3636363624,4220.1212117,0.0,3918.24242385,12.3636363624,3901.24242385,4051.15151475,4262.36363594,173.090909074,4429.78787834,729.454545382,4188.18181776,535.757575704,4345.30302987,1858.66666648,4973.27272678,2913.69696941,4027.45454505,3622.54545418,4427.21212077,4.1212121208,4203.1212117,12.3636363624,4842.42424194,8.2424242416,4389.60606017,3828.60606022,42.0,42.0,?
2017-06-01 18:07:35.651594,4533.33333288,12.3636363624,4220.63636321,0.0,3915.15151476,12.3636363624,3891.45454507,4051.15151475,4276.78787836,173.090909074,4428.2424238,729.454545382,4192.8181814,535.757575704,4340.15151472,1858.66666648,4975.84848435,2913.69696941,4037.75757535,3622.54545418,4428.2424238,4.1212121208,4203.63636322,12.3636363624,4840.87878739,8.2424242416,4393.21212077,3828.60606022,42.0,42.0,?
2017-06-01 18:07:35.658596,4541.06060561,12.3636363624,4220.63636321,0.0,3916.18181779,12.3636363624,3889.393939,4051.15151475,4278.33333291,173.090909074,4426.18181774,729.454545382,4196.424242,535.757575704,4339.12121169,1858.66666648,4989.75757526,2913.69696941,4028.48484808,3622.54545418,4431.33333289,4.1212121208,4202.60606019,12.3636363624,4839.33333285,8.2424242416,4389.09090865,3828.60606022,42.0,42.0,?
2017-06-01 18:07:35.666763,4537.454545,12.3636363624,4214.96969655,0.0,3915.15151476,12.3636363624,3891.96969658,4051.15151475,4273.18181775,173.090909074,4426.69696925,729.454545382,4195.90909049,535.757575704,4351.99999956,1858.66666648,4994.90909041,2913.69696941,4033.63636323,3622.54545418,4431.84848441,4.1212121208,4202.09090867,12.3636363624,4840.36363588,8.2424242416,4388.06060562,3828.60606022,42.0,42.0,?
2017-06-01 18:07:35.673691,4545.69696924,12.3636363624,4219.09090867,0.0,3919.27272688,12.3636363624,3880.63636325,4051.15151475,4278.33333291,173.090909074,4431.84848441,729.454545382,4198.99999958,535.757575704,4357.66666623,1858.66666648,4990.78787829,2913.69696941,4044.96969657,3622.54545418,4430.81818138,4.1212121208,4202.60606019,12.3636363624,4845.51515103,8.2424242416,4390.6363632,3828.60606022,42.0,42.0,?
2017-06-01 18:07:35.683957,4546.72727227,12.3636363624,4221.15151473,0.0,3919.27272688,12.3636363624,3882.18181779,4051.15151475,4286.06060563,173.090909074,4434.9393935,729.454545382,4202.60606019,535.757575704,4356.12121169,1858.66666648,4991.3030298,2913.69696941,4035.69696929,3622.54545418,4427.72727228,4.1212121208,4202.60606019,12.3636363624,4840.36363588,8.2424242416,4395.27272683,3828.60606022,42.0,42.0,?
2017-06-01 18:07:35.689516,4535.90909046,12.3636363624,4217.54545412,0.0,3915.66666628,12.3636363624,3900.21212082,4051.15151475,4283.48484806,173.090909074,4433.39393895,729.454545382,4200.54545413,535.757575704,4362.81818138,1858.66666648,4996.96969647,2913.69696941,4029.51515111,3622.54545418,4426.69696925,4.1212121208,4203.63636322,12.3636363624,4835.72727224,8.2424242416,4396.30302986,3828.60606022,42.0,42.0,?
2017-06-01 18:07:35.697230,4542.09090864,12.3636363624,4220.63636321,0.0,3917.72727234,12.3636363624,3900.21212082,4051.15151475,4272.15151472,173.090909074,4431.33333289,729.454545382,4192.8181814,535.757575704,4360.24242381,1858.66666648,4993.36363586,2913.69696941,4040.84848444,3622.54545418,4427.72727228,4.1212121208,4203.1212117,12.3636363624,4841.39393891,8.2424242416,4390.12121168,3828.60606022,42.0,42.0,?
2017-06-01 18:07:35.704469,4539.51515106,12.3636363624,4219.09090867,0.0,3917.21212082,12.3636363624,3887.33333294,4051.15151475,4271.63636321,173.090909074,4427.21212077,729.454545382,4189.21212079,535.757575704,4351.48484805,1858.66666648,4988.21212071,2913.69696941,4043.42424202,3622.54545418,4428.2424238,4.1212121208,4201.06060564,12.3636363624,4841.39393891,8.2424242416,4388.06060562,3828.60606022,42.0,42.0,?
2017-06-01 18:07:35.714188,4539.51515106,12.3636363624,4219.60606018,0.0,3917.21212082,12.3636363624,3891.45454507,4051.15151475,4276.78787836,173.090909074,4431.33333289,729.454545382,4191.27272685,535.757575704,4347.87878744,1858.66666648,4993.36363586,2913.69696941,4029.51515111,3622.54545418,4430.30302986,4.1212121208,4202.09090867,12.3636363624,4842.42424194,8.2424242416,4390.12121168,3828.60606022,42.0,42.0,?
2017-06-01 18:07:35.720394,4539.51515106,12.3636363624,4219.09090867,0.0,3917.72727234,12.3636363624,3899.69696931,4051.15151475,4275.75757533,173.090909074,4439.06060562,729.454545382,4194.87878746,535.757575704,4344.27272684,1858.66666648,4998.51515102,2913.69696941,4025.39393899,3622.54545418,4428.2424238,4.1212121208,4203.63636322,12.3636363624,4842.93939346,8.2424242416,4384.45454502,3828.60606022,42.0,42.0,?
2017-06-01 18:07:35.728388,4531.78787833,12.3636363624,4215.48484806,0.0,3916.18181779,12.3636363624,3881.66666628,4051.15151475,4272.15151472,173.090909074,4432.36363592,729.454545382,4194.36363594,535.757575704,4344.78787835,1858.66666648,4979.96969647,2913.69696941,4031.57575717,3622.54545418,4426.69696925,4.1212121208,4203.63636322,12.3636363624,4838.81818133,8.2424242416,4378.78787835,3828.60606022,42.0,42.0,?
2017-06-01 18:07:35.737407,4542.09090864,12.3636363624,4219.09090867,0.0,3918.24242385,12.3636363624,3867.75757537,4051.15151475,4267.51515109,173.090909074,4423.60606016,729.454545382,4191.27272685,535.757575704,4350.45454502,1858.66666648,4961.42424193,2913.69696941,4031.57575717,3622.54545418,4429.27272683,4.1212121208,4202.09090867,12.3636363624,4838.30302982,8.2424242416,4381.87878744,3828.60606022,42.0,42.0,?
2017-06-01 18:07:35.743434,4540.54545409,12.3636363624,4218.06060564,0.0,3918.24242385,12.3636363624,3887.84848446,4051.15151475,4266.99999957,173.090909074,4428.2424238,729.454545382,4194.36363594,535.757575704,4356.12121169,1858.66666648,4975.84848435,2913.69696941,4030.54545414,3622.54545418,4428.2424238,4.1212121208,4201.06060564,12.3636363624,4838.30302982,8.2424242416,4390.6363632,3828.60606022,42.0,42.0,?
2017-06-01 18:07:35.751399,4537.454545,12.3636363624,4219.09090867,0.0,3918.75757537,12.3636363624,3901.75757537,4051.15151475,4276.27272685,173.090909074,4435.45454501,729.454545382,4199.5151511,535.757575704,4355.09090866,1858.66666648,4985.63636314,2913.69696941,4032.09090869,3622.54545418,4427.21212077,4.1212121208,4204.15151473,12.3636363624,4840.36363588,8.2424242416,4390.6363632,3828.60606022,42.0,42.0,?
2017-06-01 18:07:35.760353,4539.51515106,12.3636363624,4222.18181776,0.0,3918.75757537,12.3636363624,3894.03030264,4051.15151475,4288.12121169,173.090909074,4431.84848441,729.454545382,4194.36363594,535.757575704,4350.45454502,1858.66666648,4979.45454496,2913.69696941,4041.36363596,3622.54545418,4428.2424238,4.1212121208,4202.60606019,12.3636363624,4841.39393891,8.2424242416,4384.96969653,3828.60606022,42.0,42.0,?
2017-06-01 18:07:35.773266,4534.87878743,12.3636363624,4219.09090867,0.0,3916.18181779,12.3636363624,3885.27272688,4051.15151475,4281.93939351,173.090909074,4426.18181774,729.454545382,4190.24242382,535.757575704,4343.24242381,1858.66666648,4989.75757526,2913.69696941,4044.96969657,3622.54545418,4429.27272683,4.1212121208,4197.96969655,12.3636363624,4839.84848436,8.2424242416,4383.9393935,3828.60606022,42.0,42.0,?
2017-06-01 18:07:35.777119,4543.12121167,12.3636363624,4219.60606018,0.0,3920.30302991,12.3636363624,3880.12121173,4051.15151475,4266.99999957,173.090909074,4427.21212077,729.454545382,4192.30302988,535.757575704,4341.18181775,1858.66666648,4992.33333283,2913.69696941,4038.27272687,3622.54545418,4429.27272683,4.1212121208,4198.99999958,12.3636363624,4840.36363588,8.2424242416,4384.45454502,3828.60606022,42.0,42.0,?
2017-06-01 18:07:35.785810,4540.54545409,12.3636363624,4218.06060564,0.0,3917.72727234,12.3636363624,3891.45454507,4051.15151475,4272.15151472,173.090909074,4429.27272683,729.454545382,4192.30302988,535.757575704,4350.45454502,1858.66666648,4977.3939389,2913.69696941,4039.3030299,3622.54545418,4429.27272683,4.1212121208,4202.60606019,12.3636363624,4838.81818133,8.2424242416,4386.51515108,3828.60606022,42.0,42.0,?
