Timestamp,F3 Value,F3 Quality,FC5 Value,FC5 Quality,F7 Value,F7 Quality,T7 Value,T7 Quality,P7 Value,P7 Quality,O1 Value,O1 Quality,O2 Value,O2 Quality,P8 Value,P8 Quality,T8 Value,T8 Quality,F8 Value,F8 Quality,AF4 Value,AF4 Quality,FC6 Value,FC6 Quality,F4 Value,F4 Quality,AF3 Value,AF3 Quality,X Value,Y Value,Z Value
2017-06-01 17:27:51.282420,4536.42424197,0,4220.1212117,0,3891.96969658,0,3872.39393901,0,4293.78787836,0,4480.78787834,0,4230.424242,0,4355.09090866,0,4991.3030298,0,4189.21212079,0,4424.63636319,0,4227.33333291,0,4839.84848436,0,4487.48484804,0,42.0,42.0,?
2017-06-01 17:27:51.284317,4536.42424197,0,4220.1212117,0,3895.06060567,0,3874.45454507,0,4294.81818139,0,4476.66666622,0,4234.54545412,0,4356.12121169,0,4985.63636314,0,4179.42424201,0,4427.72727228,0,4225.27272685,0,4840.87878739,0,4483.87878743,0,42.0,42.0,?
2017-06-01 17:27:51.288669,4537.96969652,0,4223.7272723,0,3895.06060567,0,3874.45454507,0,4294.81818139,0,4476.66666622,0,4234.54545412,0,4356.12121169,0,4985.63636314,0,4179.42424201,0,4427.72727228,0,4225.27272685,0,4840.87878739,0,4483.87878743,0,42.0,42.0,?
2017-06-01 17:27:51.291833,4538.99999955,0,4225.27272685,0,3894.03030264,0,3882.18181779,0,4293.78787836,0,4477.18181773,0,4239.18181776,0,4351.48484805,0,4984.09090859,0,4171.69696928,0,4427.21212077,0,4225.27272685,0,4838.81818133,0,4490.06060561,0,42.0,42.0,?
2017-06-01 17:27:51.295062,4538.48484803,0,4223.21212079,0,3891.45454507,0,3881.15151476,0,4293.78787836,0,4482.33333289,0,4236.09090867,0,4347.87878744,0,4992.33333283,0,4178.90909049,0,4430.81818138,0,4226.30302988,0,4844.484848,0,4493.1515147,0,42.0,42.0,?
2017-06-01 17:27:51.299572,4539.51515106,0,4224.75757534,0,3881.66666628,0,3878.57575719,0,4292.24242381,0,4474.60606016,0,4220.63636321,0,4343.75757532,0,4982.03030253,0,4169.63636322,0,4427.72727228,0,4225.78787837,0,4846.03030255,0,4475.63636319,0,42.0,42.0,?
2017-06-01 17:27:51.302997,4537.454545,0,4225.78787837,0,3885.27272688,0,3884.75757537,0,4294.81818139,0,4467.39393895,0,4215.48484806,0,4342.72727229,0,4967.60606011,0,4164.48484807,0,4424.12121168,0,4226.8181814,0,4840.87878739,0,4469.45454501,0,42.0,42.0,?
2017-06-01 17:27:51.309816,4540.03030258,0,4224.75757534,0,3900.21212082,0,3887.84848446,0,4294.30302987,0,4472.5454541,0,4222.69696927,0,4347.87878744,0,4979.96969647,0,4180.45454504,0,4429.78787834,0,4230.93939352,0,4843.96969649,0,4485.42424198,0,42.0,42.0,?
2017-06-01 17:27:51.311489,4540.03030258,0,4224.75757534,0,3899.18181779,0,3883.72727234,0,4294.30302987,0,4472.03030258,0,4220.1212117,0,4353.03030259,0,4993.87878738,0,4183.03030261,0,4429.27272683,0,4230.93939352,0,4841.39393891,0,4492.12121167,0,42.0,42.0,?
2017-06-01 17:27:51.314669,4537.454545,0,4222.69696927,0,3891.45454507,0,3884.75757537,0,4290.69696927,0,4464.81818137,0,4217.54545412,0,4354.57575714,0,4987.18181768,0,4175.30302989,0,4427.72727228,0,4225.78787837,0,4840.87878739,0,4487.48484804,0,42.0,42.0,?
2017-06-01 17:27:51.318446,4542.09090864,0,4224.75757534,0,3892.4848481,0,3883.21212082,0,4292.24242381,0,4466.36363592,0,4223.21212079,0,4350.45454502,0,4987.18181768,0,4176.84848443,0,4427.21212077,0,4225.27272685,0,4844.484848,0,4483.87878743,0,42.0,42.0,?
2017-06-01 17:27:51.324417,4538.99999955,0,4224.24242382,0,3893.51515113,0,3878.06060567,0,4292.75757533,0,4467.90909046,0,4224.75757534,0,4347.87878744,0,4995.42424192,0,4177.36363595,0,4425.15151471,0,4228.36363594,0,4840.36363588,0,4484.90909046,0,42.0,42.0,?
2017-06-01 17:27:51.329960,4537.96969652,0,4222.69696927,0,3902.27272688,0,3885.27272688,0,4296.36363593,0,4468.42424198,0,4223.7272723,0,4351.48484805,0,4987.18181768,0,4179.93939352,0,4427.21212077,0,4228.36363594,0,4842.42424194,0,4497.27272682,0,42.0,42.0,?
2017-06-01 17:27:51.334526,4539.51515106,0,4221.66666624,0,3921.33333294,0,3898.66666628,0,4299.45454502,0,4474.09090864,0,4223.7272723,0,4354.06060563,0,4987.18181768,0,4190.24242382,0,4427.72727228,0,4225.27272685,0,4839.33333285,0,4509.12121167,0,42.0,42.0,?
2017-06-01 17:27:51.337925,4537.96969652,0,4223.21212079,0,3928.03030264,0,3901.24242385,0,4294.30302987,0,4478.21212076,0,4223.21212079,0,4353.03030259,0,5006.75757526,0,4198.48484806,0,4429.78787834,0,4228.36363594,0,4838.30302982,0,4513.75757531,0,42.0,42.0,?
2017-06-01 17:27:51.341311,4538.48484803,0,4224.75757534,0,3918.24242385,0,3897.12121173,0,4289.66666624,0,4477.69696925,0,4225.27272685,0,4354.57575714,0,5008.81818132,0,4197.96969655,0,4429.78787834,0,4231.96969655,0,4841.39393891,0,4513.75757531,0,42.0,42.0,?
2017-06-01 17:27:51.344919,4537.454545,0,4221.66666624,0,3911.03030264,0,3894.03030264,0,4294.30302987,0,4478.72727228,0,4235.06060564,0,4360.24242381,0,4994.90909041,0,4194.87878746,0,4424.63636319,0,4228.87878746,0,4839.33333285,0,4502.42424197,0,42.0,42.0,?
2017-06-01 17:27:51.348012,4537.454545,0,4221.66666624,0,3905.36363597,0,3888.36363597,0,4293.27272684,0,4483.87878743,0,4238.66666624,0,4358.69696926,0,4992.84848435,0,4192.8181814,0,4426.69696925,0,4227.84848443,0,4844.484848,0,4485.42424198,0,42.0,42.0,?
2017-06-01 17:27:51.354897,4537.96969652,12.3636363624,4225.78787837,0,3898.66666628,0,3886.30302991,0,4288.63636321,0,4493.66666622,0,4229.90909049,0,4350.96969653,0,5003.66666617,0,4201.06060564,0,4426.18181774,0,4228.36363594,0,4842.42424194,0,4484.90909046,0,42.0,42.0,?
2017-06-01 17:27:51.362928,4534.87878743,12.3636363624,4225.27272685,0.0,3899.69696931,0,3889.90909052,0,4293.27272684,0,4498.30302985,0,4220.63636321,0,4348.90909047,0,5011.90909041,0,4204.15151473,0,4424.63636319,0,4227.84848443,0,4838.30302982,0,4492.12121167,0,42.0,42.0,?
2017-06-01 17:27:51.371429,4536.42424197,12.3636363624,4224.24242382,0.0,3903.30302991,0,3887.84848446,0,4294.81818139,0,4495.72727228,0,4214.45454503,0,4347.36363593,0,5002.12121162,0,4184.57575716,0,4426.18181774,0,4225.78787837,0,4842.93939346,0,4486.45454501,3787.39393902,42.0,42.0,?
2017-06-01 17:27:51.379041,4534.87878743,12.3636363624,4221.66666624,0.0,3905.87878749,107.151515141,3887.84848446,0,4293.78787836,0,4497.27272682,0,4215.99999958,0,4345.30302987,0,4988.21212071,0,4175.30302989,0,4424.63636319,0,4221.15151473,0,4841.90909042,0,4490.57575713,3787.39393902,42.0,42.0,?
2017-06-01 17:27:51.386434,4535.90909046,12.3636363624,4222.69696927,0.0,3912.57575718,107.151515141,3896.60606022,317.333333302,4299.96969654,0,4502.93939349,0,4223.7272723,0,4348.90909047,0,4991.3030298,0,4186.63636322,0,4428.75757531,0,4222.69696927,0,4841.39393891,0,4505.51515106,3787.39393902,42.0,42.0,?
2017-06-01 17:27:51.394310,4539.51515106,12.3636363624,4226.30302988,0.0,3917.21212082,107.151515141,3901.24242385,317.333333302,4303.57575715,2777.69696942,4501.39393894,0,4232.99999958,0,4354.57575714,0,4999.54545405,0,4192.30302988,0,4426.18181774,0,4227.33333291,0,4836.24242376,0,4506.54545409,3787.39393902,42.0,42.0,?
2017-06-01 17:27:51.402099,4535.90909046,12.3636363624,4223.7272723,0.0,3916.69696931,107.151515141,3897.63636325,317.333333302,4300.99999957,2777.69696942,4495.21212076,1903.99999981,4242.27272685,0,4359.21212078,0,5000.57575708,0,4195.39393897,0,4425.15151471,0,4229.90909049,0,4835.21212073,0,4507.57575713,3787.39393902,42.0,42.0,?
2017-06-01 17:27:51.410546,4536.93939349,12.3636363624,4221.15151473,0.0,3914.63636324,107.151515141,3893.51515113,317.333333302,4299.45454502,2777.69696942,4492.12121167,1903.99999981,4245.36363594,2868.36363608,4361.27272684,0,4999.54545405,0,4197.96969655,0,4430.30302986,0,4229.90909049,0,4843.45454497,0,4518.39393894,3787.39393902,42.0,42.0,?
2017-06-01 17:27:51.423276,4535.39393894,12.3636363624,4221.66666624,0.0,3918.24242385,107.151515141,3897.12121173,317.333333302,4301.51515109,2777.69696942,4493.66666622,1903.99999981,4239.69696927,2868.36363608,4360.75757532,1364.12121198,5007.27272677,0,4198.99999958,0,4428.2424238,0,4227.84848443,0,4839.33333285,0,4522.51515106,3787.39393902,42.0,42.0,?
2017-06-01 17:27:51.425726,4535.39393894,12.3636363624,4222.69696927,0.0,3922.87878749,107.151515141,3906.393939,317.333333302,4307.69696927,2777.69696942,4489.5454541,1903.99999981,4229.90909049,2868.36363608,4356.6363632,1364.12121198,5020.66666616,2996.12121182,4200.54545413,0,4428.2424238,0,4228.36363594,0,4839.33333285,0,4521.48484803,3787.39393902,42.0,42.0,?
2017-06-01 17:27:51.433606,4540.03030258,12.3636363624,4222.18181776,0.0,3923.90909052,107.151515141,3905.87878749,317.333333302,4308.7272723,2777.69696942,4480.27272682,1903.99999981,4220.63636321,2868.36363608,4353.03030259,1364.12121198,5019.12121162,2996.12121182,4203.1212117,37.0909090872,4426.18181774,0,4229.39393897,0,4843.45454497,0,4524.57575712,3787.39393902,42.0,42.0,?
2017-06-01 17:27:51.441032,4536.93939349,12.3636363624,4219.60606018,0.0,3922.87878749,107.151515141,3897.63636325,317.333333302,4297.90909048,2777.69696942,4470.48484804,1903.99999981,4222.18181776,2868.36363608,4353.03030259,1364.12121198,5006.75757526,2996.12121182,4204.15151473,37.0909090872,4426.18181774,8.2424242416,4226.8181814,0,4840.36363588,0,4521.48484803,3787.39393902,42.0,42.0,?
2017-06-01 17:27:51.448412,4536.93939349,12.3636363624,4222.18181776,0.0,3915.66666628,107.151515141,3896.60606022,317.333333302,4288.63636321,2777.69696942,4469.96969652,1903.99999981,4225.78787837,2868.36363608,4350.96969653,1364.12121198,5004.18181768,2996.12121182,4195.39393897,37.0909090872,4431.84848441,8.2424242416,4226.30302988,4.1212121208,4841.90909042,0,4508.09090864,3787.39393902,42.0,42.0,?
2017-06-01 17:27:51.457261,4537.96969652,12.3636363624,4223.7272723,0.0,3906.393939,107.151515141,3895.57575719,317.333333302,4290.18181775,2777.69696942,4472.5454541,1903.99999981,4220.1212117,2868.36363608,4345.30302987,1364.12121198,5000.57575708,2996.12121182,4181.99999958,37.0909090872,4427.21212077,8.2424242416,4227.33333291,4.1212121208,4840.87878739,8.2424242416,4497.78787834,3787.39393902,42.0,42.0,?
2017-06-01 17:27:51.467871,4536.42424197,12.3636363624,4223.21212079,0.0,3908.45454506,107.151515141,3889.393939,317.333333302,4290.69696927,2777.69696942,4467.90909046,1903.99999981,4216.51515109,2868.36363608,4347.87878744,1364.12121198,4985.63636314,2996.12121182,4181.99999958,37.0909090872,4426.69696925,8.2424242416,4228.87878746,4.1212121208,4839.84848436,8.2424242416,4502.93939349,3787.39393902,42.0,42.0,?
2017-06-01 17:27:51.472509,4537.454545,12.3636363624,4224.75757534,0.0,3912.57575718,107.151515141,3885.27272688,317.333333302,4290.18181775,2777.69696942,4469.96969652,1903.99999981,4221.66666624,2868.36363608,4355.09090866,1364.12121198,4985.12121162,2996.12121182,4187.66666625,37.0909090872,4428.75757531,4.1212121208,4227.33333291,4.1212121208,4839.33333285,8.2424242416,4511.18181773,3787.39393902,42.0,42.0,?
2017-06-01 17:27:51.481322,4536.93939349,12.3636363624,4223.7272723,0.0,3910.51515112,107.151515141,3891.96969658,317.333333302,4293.78787836,2777.69696942,4477.69696925,1903.99999981,4221.15151473,2868.36363608,4351.48484805,1364.12121198,5007.27272677,2996.12121182,4192.30302988,37.0909090872,4426.69696925,4.1212121208,4226.30302988,4.1212121208,4837.7878783,8.2424242416,4511.69696925,3787.39393902,42.0,42.0,?
2017-06-01 17:27:51.488026,4536.93939349,12.3636363624,4221.15151473,0.0,3913.0909087,107.151515141,3899.18181779,317.333333302,4293.78787836,2777.69696942,4471.51515107,1903.99999981,4213.424242,2868.36363608,4341.69696926,1364.12121198,5011.90909041,2996.12121182,4199.5151511,37.0909090872,4425.66666622,4.1212121208,4228.87878746,4.1212121208,4842.93939346,8.2424242416,4515.30302985,3787.39393902,42.0,42.0,?
2017-06-01 17:27:51.496944,4536.42424197,12.3636363624,4221.15151473,0.0,3921.33333294,107.151515141,3898.15151476,317.333333302,4296.87878745,2777.69696942,4467.39393895,1903.99999981,4215.48484806,2868.36363608,4349.9393935,1364.12121198,5000.06060556,2996.12121182,4203.63636322,37.0909090872,4422.06060562,4.1212121208,4228.87878746,4.1212121208,4840.36363588,8.2424242416,4518.39393894,3787.39393902,42.0,42.0,?
2017-06-01 17:27:51.504461,4538.48484803,12.3636363624,4223.21212079,0.0,3929.06060567,107.151515141,3899.69696931,317.333333302,4306.15151472,2777.69696942,4481.30302985,1903.99999981,4232.48484806,2868.36363608,4360.75757532,1364.12121198,5012.42424192,2996.12121182,4201.06060564,37.0909090872,4426.18181774,4.1212121208,4226.8181814,4.1212121208,4839.84848436,8.2424242416,4525.09090864,3787.39393902,42.0,42.0,?
2017-06-01 17:27:51.512246,4540.54545409,12.3636363624,4223.21212079,0.0,3931.63636324,107.151515141,3905.36363597,317.333333302,4307.69696927,2777.69696942,4484.39393895,1903.99999981,4245.87878745,2868.36363608,4359.72727229,1364.12121198,5034.57575707,2996.12121182,4203.1212117,37.0909090872,4428.75757531,4.1212121208,4226.8181814,4.1212121208,4842.42424194,8.2424242416,4536.42424197,3787.39393902,42.0,42.0,?
2017-06-01 17:27:51.519422,4535.90909046,12.3636363624,4222.69696927,0.0,3930.0909087,107.151515141,3907.93939355,317.333333302,4304.09090866,2777.69696942,4474.60606016,1903.99999981,4242.78787836,2868.36363608,4369.51515108,1364.12121198,5033.54545404,2996.12121182,4208.27272685,37.0909090872,4426.18181774,4.1212121208,4227.84848443,4.1212121208,4839.84848436,8.2424242416,4537.96969652,3787.39393902,42.0,42.0,?
2017-06-01 17:27:51.526925,4537.96969652,12.3636363624,4225.78787837,0.0,3926.99999961,107.151515141,3902.7878784,317.333333302,4303.57575715,2777.69696942,4474.09090864,1903.99999981,4234.03030261,2868.36363608,4375.18181774,1364.12121198,5016.54545404,2996.12121182,4203.1212117,37.0909090872,4427.72727228,4.1212121208,4227.84848443,4.1212121208,4844.99999952,8.2424242416,4525.09090864,3787.39393902,42.0,42.0,?
2017-06-01 17:27:51.535752,4539.51515106,12.3636363624,4226.30302988,0.0,3922.36363597,107.151515141,3898.66666628,317.333333302,4304.60606018,2777.69696942,4478.21212076,1903.99999981,4228.36363594,2868.36363608,4360.24242381,1364.12121198,5003.66666617,2996.12121182,4185.60606019,37.0909090872,4426.69696925,4.1212121208,4225.27272685,4.1212121208,4842.93939346,8.2424242416,4517.87878743,3787.39393902,42.0,42.0,?
2017-06-01 17:27:51.543740,4535.39393894,12.3636363624,4222.18181776,0.0,3918.75757537,107.151515141,3900.21212082,317.333333302,4304.60606018,2777.69696942,4480.27272682,1903.99999981,4222.69696927,2868.36363608,4353.03030259,1364.12121198,5003.66666617,2996.12121182,4170.66666625,37.0909090872,4427.72727228,4.1212121208,4226.8181814,4.1212121208,4838.81818133,8.2424242416,4519.93939349,3787.39393902,42.0,42.0,?
2017-06-01 17:27:51.550661,4538.48484803,12.3636363624,4221.66666624,0.0,3915.15151476,107.151515141,3896.60606022,317.333333302,4299.45454502,2777.69696942,4476.66666622,1903.99999981,4219.60606018,2868.36363608,4357.15151472,1364.12121198,5011.90909041,2996.12121182,4174.78787837,37.0909090872,4428.75757531,4.1212121208,4229.39393897,4.1212121208,4843.45454497,8.2424242416,4517.36363591,3787.39393902,42.0,42.0,?
2017-06-01 17:27:51.558770,4538.48484803,12.3636363624,4223.21212079,0.0,3914.63636324,107.151515141,3894.03030264,317.333333302,4293.27272684,2777.69696942,4467.39393895,1903.99999981,4228.87878746,2868.36363608,4359.72727229,1364.12121198,5011.39393889,2996.12121182,4189.72727231,37.0909090872,4425.66666622,4.1212121208,4227.33333291,4.1212121208,4839.84848436,8.2424242416,4513.24242379,3787.39393902,42.0,42.0,?
2017-06-01 17:27:51.567522,4539.51515106,12.3636363624,4222.69696927,0.0,3909.48484809,107.151515141,3896.0909087,317.333333302,4294.30302987,2777.69696942,4466.36363592,1903.99999981,4232.99999958,2868.36363608,4357.66666623,1364.12121198,4999.03030253,2996.12121182,4187.15151473,37.0909090872,4428.2424238,4.1212121208,4225.78787837,4.1212121208,4840.36363588,8.2424242416,4506.54545409,3787.39393902,42.0,42.0,?
2017-06-01 17:27:51.574985,4541.57575712,12.3636363624,4222.69696927,0.0,3900.72727234,107.151515141,3889.90909052,317.333333302,4294.81818139,2777.69696942,4476.66666622,1903.99999981,4218.57575715,2868.36363608,4348.90909047,1364.12121198,4995.93939344,2996.12121182,4169.1212117,37.0909090872,4426.69696925,4.1212121208,4226.8181814,4.1212121208,4843.96969649,8.2424242416,4495.72727228,3787.39393902,42.0,42.0,?
2017-06-01 17:27:51.581966,4536.93939349,12.3636363624,4224.24242382,0.0,3905.36363597,107.151515141,3886.30302991,317.333333302,4291.21212078,2777.69696942,4478.72727228,1903.99999981,4214.45454503,2868.36363608,4342.21212078,1364.12121198,5007.27272677,2996.12121182,4167.06060564,37.0909090872,4426.69696925,4.1212121208,4227.33333291,4.1212121208,4844.484848,8.2424242416,4497.27272682,3787.39393902,42.0,42.0,?
2017-06-01 17:27:51.591678,4539.51515106,12.3636363624,4227.33333291,0.0,3916.69696931,107.151515141,3898.66666628,317.333333302,4293.78787836,2777.69696942,4470.48484804,1903.99999981,4232.48484806,2868.36363608,4353.03030259,1364.12121198,5011.39393889,2996.12121182,4180.96969655,37.0909090872,4430.30302986,4.1212121208,4228.87878746,4.1212121208,4841.90909042,8.2424242416,4510.66666622,3787.39393902,42.0,42.0,?
2017-06-01 17:27:51.598872,4541.57575712,12.3636363624,4224.24242382,0.0,3912.06060567,107.151515141,3905.36363597,317.333333302,4302.54545412,2777.69696942,4472.5454541,1903.99999981,4244.33333291,2868.36363608,4364.36363593,1364.12121198,5005.21212071,2996.12121182,4187.15151473,37.0909090872,4427.72727228,4.1212121208,4228.87878746,4.1212121208,4836.75757527,8.2424242416,4512.72727228,3787.39393902,42.0,42.0,?
2017-06-01 17:27:51.606345,4538.99999955,12.3636363624,4222.18181776,0.0,3899.18181779,107.151515141,3895.57575719,317.333333302,4306.66666624,2777.69696942,4483.36363592,1903.99999981,4234.54545412,2868.36363608,4361.27272684,1364.12121198,5003.15151465,2996.12121182,4182.5151511,37.0909090872,4428.75757531,4.1212121208,4227.33333291,4.1212121208,4841.39393891,8.2424242416,4504.99999955,3787.39393902,42.0,42.0,?
2017-06-01 17:27:51.613269,4537.454545,12.3636363624,4224.75757534,0.0,3904.33333294,107.151515141,3891.45454507,317.333333302,4305.12121169,2777.69696942,4482.8484844,1903.99999981,4226.30302988,2868.36363608,4359.21212078,1364.12121198,5004.6969692,2996.12121182,4188.18181776,37.0909090872,4427.72727228,4.1212121208,4226.30302988,4.1212121208,4843.45454497,8.2424242416,4513.75757531,3787.39393902,42.0,42.0,?
2017-06-01 17:27:51.622173,4536.93939349,12.3636363624,4222.18181776,0.0,3919.27272688,107.151515141,3899.69696931,317.333333302,4305.12121169,2777.69696942,4476.1515147,1903.99999981,4229.90909049,2868.36363608,4364.36363593,1364.12121198,5012.42424192,2996.12121182,4202.09090867,37.0909090872,4426.69696925,4.1212121208,4227.33333291,4.1212121208,4840.36363588,8.2424242416,4537.454545,3787.39393902,42.0,42.0,?
2017-06-01 17:27:51.628929,4540.54545409,12.3636363624,4222.18181776,0.0,3919.7878784,107.151515141,3899.69696931,317.333333302,4305.12121169,2777.69696942,4476.1515147,1903.99999981,4230.424242,2868.36363608,4361.27272684,1364.12121198,5020.66666616,2996.12121182,4199.5151511,37.0909090872,4427.21212077,4.1212121208,4229.39393897,4.1212121208,4841.90909042,8.2424242416,4538.99999955,3787.39393902,42.0,42.0,?
2017-06-01 17:27:51.637577,4541.06060561,12.3636363624,4226.8181814,0.0,3912.57575718,107.151515141,3894.03030264,317.333333302,4299.96969654,2777.69696942,4472.03030258,1903.99999981,4227.84848443,2868.36363608,4351.99999956,1364.12121198,5016.03030253,2996.12121182,4183.03030261,37.0909090872,4424.12121168,4.1212121208,4227.84848443,4.1212121208,4841.39393891,8.2424242416,4519.93939349,3787.39393902,42.0,42.0,?
2017-06-01 17:27:51.645910,4540.03030258,12.3636363624,4226.30302988,0.0,3913.0909087,107.151515141,3894.03030264,317.333333302,4291.7272723,2777.69696942,4467.39393895,1903.99999981,4228.36363594,2868.36363608,4351.48484805,1364.12121198,4999.03030253,2996.12121182,4177.36363595,37.0909090872,4427.72727228,4.1212121208,4225.78787837,4.1212121208,4843.45454497,8.2424242416,4514.78787834,3787.39393902,42.0,42.0,?
2017-06-01 17:27:51.652210,4541.57575712,12.3636363624,4224.24242382,0.0,3917.21212082,107.151515141,3899.69696931,317.333333302,4291.7272723,2777.69696942,4474.09090864,1903.99999981,4234.03030261,2868.36363608,4356.12121169,1364.12121198,4993.87878738,2996.12121182,4180.45454504,37.0909090872,4427.21212077,4.1212121208,4226.8181814,4.1212121208,4842.42424194,8.2424242416,4524.57575712,3787.39393902,42.0,42.0,?
2017-06-01 17:27:51.660406,4538.99999955,12.3636363624,4226.30302988,0.0,3919.7878784,107.151515141,3902.7878784,317.333333302,4295.3333329,2777.69696942,4481.30302985,1903.99999981,4245.87878745,2868.36363608,4358.18181775,1364.12121198,5007.27272677,2996.12121182,4184.57575716,37.0909090872,4426.18181774,4.1212121208,4228.36363594,4.1212121208,4838.81818133,8.2424242416,4533.8484844,3787.39393902,42.0,42.0,?
2017-06-01 17:27:51.669257,4538.48484803,12.3636363624,4230.424242,0.0,3916.18181779,107.151515141,3898.66666628,317.333333302,4293.27272684,2777.69696942,4479.24242379,1903.99999981,4246.39393897,2868.36363608,4360.75757532,1364.12121198,5011.90909041,2996.12121182,4189.21212079,37.0909090872,4429.78787834,4.1212121208,4229.39393897,4.1212121208,4842.42424194,8.2424242416,4533.8484844,3787.39393902,42.0,42.0,?
2017-06-01 17:27:51.677771,4537.96969652,12.3636363624,4226.8181814,0.0,3912.06060567,107.151515141,3901.75757537,317.333333302,4294.81818139,2777.69696942,4478.72727228,1903.99999981,4234.03030261,2868.36363608,4361.78787835,1364.12121198,5004.6969692,2996.12121182,4186.63636322,37.0909090872,4427.21212077,4.1212121208,4226.8181814,4.1212121208,4840.87878739,8.2424242416,4528.69696924,3787.39393902,42.0,42.0,?
2017-06-01 17:27:51.684134,4536.42424197,12.3636363624,4222.18181776,0.0,3919.27272688,107.151515141,3909.99999961,317.333333302,4309.75757533,2777.69696942,4486.96969652,1903.99999981,4230.424242,2868.36363608,4362.30302987,1364.12121198,5007.27272677,2996.12121182,4179.93939352,37.0909090872,4426.69696925,4.1212121208,4227.33333291,4.1212121208,4842.42424194,8.2424242416,4530.24242379,3787.39393902,42.0,42.0,?
2017-06-01 17:27:51.694674,4540.54545409,12.3636363624,4225.78787837,0.0,3923.90909052,107.151515141,3906.90909052,317.333333302,4317.48484805,2777.69696942,4492.63636319,1903.99999981,4235.57575715,2868.36363608,4361.78787835,1364.12121198,5012.93939344,2996.12121182,4183.54545413,37.0909090872,4427.72727228,4.1212121208,4227.84848443,4.1212121208,4846.03030255,8.2424242416,4534.87878743,3787.39393902,42.0,42.0,?
2017-06-01 17:27:51.699494,4541.57575712,12.3636363624,4224.75757534,0.0,3922.36363597,107.151515141,3901.24242385,317.333333302,4311.81818139,2777.69696942,4492.12121167,1903.99999981,4241.24242382,2868.36363608,4359.72727229,1364.12121198,5012.42424192,2996.12121182,4189.21212079,37.0909090872,4427.72727228,4.1212121208,4226.8181814,4.1212121208,4843.96969649,8.2424242416,4533.33333288,3787.39393902,42.0,42.0,?
2017-06-01 17:27:51.708090,4538.99999955,12.3636363624,4220.63636321,0.0,3926.48484809,107.151515141,3905.36363597,317.333333302,4313.36363593,2777.69696942,4491.60606016,1903.99999981,4252.06060564,2868.36363608,4367.96969653,1364.12121198,5017.57575707,2996.12121182,4190.75757534,37.0909090872,4426.69696925,4.1212121208,4227.84848443,4.1212121208,4840.36363588,8.2424242416,4533.8484844,3787.39393902,42.0,42.0,?
2017-06-01 17:27:51.714395,4543.12121167,12.3636363624,4223.7272723,0.0,3929.06060567,107.151515141,3908.96969658,317.333333302,4319.54545411,2777.69696942,4497.27272682,1903.99999981,4252.06060564,2868.36363608,4374.15151471,1364.12121198,5021.18181768,2996.12121182,4193.33333291,37.0909090872,4428.2424238,4.1212121208,4229.90909049,4.1212121208,4840.36363588,8.2424242416,4531.78787833,3787.39393902,42.0,42.0,?
2017-06-01 17:27:51.722448,4544.66666621,12.3636363624,4225.78787837,0.0,3922.36363597,107.151515141,3906.90909052,317.333333302,4307.69696927,2777.69696942,4498.30302985,1903.99999981,4235.06060564,2868.36363608,4361.27272684,1364.12121198,5016.54545404,2996.12121182,4192.30302988,37.0909090872,4427.21212077,4.1212121208,4229.39393897,4.1212121208,4843.96969649,8.2424242416,4523.03030258,3787.39393902,42.0,42.0,?
2017-06-01 17:27:51.732412,4534.36363591,12.3636363624,4223.21212079,0.0,3913.60606021,107.151515141,3901.75757537,317.333333302,4291.7272723,2777.69696942,4495.21212076,1903.99999981,4227.33333291,2868.36363608,4351.48484805,1364.12121198,5014.48484798,2996.12121182,4191.27272685,37.0909090872,4417.42424198,4.1212121208,4225.78787837,4.1212121208,4832.12121164,8.2424242416,4516.8484844,3787.39393902,42.0,42.0,?
2017-06-01 17:27:51.738334,4543.12121167,12.3636363624,4227.33333291,0.0,3906.393939,107.151515141,3895.06060567,317.333333302,4290.18181775,2777.69696942,4502.93939349,1903.99999981,4234.03030261,2868.36363608,4356.12121169,1364.12121198,5000.57575708,2996.12121182,4192.8181814,37.0909090872,4437.51515107,4.1212121208,4229.90909049,4.1212121208,4851.69696921,8.2424242416,4513.75757531,3787.39393902,42.0,42.0,?
2017-06-01 17:27:51.746921,4554.96969651,12.3636363624,4230.424242,0.0,3903.30302991,107.151515141,3894.54545416,317.333333302,4292.75757533,2777.69696942,4513.75757531,1903.99999981,4231.45454503,2868.36363608,4352.51515108,1364.12121198,4981.51515102,2996.12121182,4177.36363595,37.0909090872,4441.12121168,4.1212121208,4230.93939352,4.1212121208,4864.57575709,8.2424242416,4505.51515106,3787.39393902,42.0,42.0,?
2017-06-01 17:27:51.754351,4534.36363591,12.3636363624,4218.57575715,0.0,3910.51515112,107.151515141,3898.66666628,317.333333302,4294.30302987,2777.69696942,4512.21212076,1903.99999981,4225.78787837,2868.36363608,4346.3333329,1364.12121198,4994.90909041,2996.12121182,4166.03030261,37.0909090872,4411.75757532,4.1212121208,4223.7272723,4.1212121208,4825.93939346,8.2424242416,4503.96969652,3787.39393902,42.0,42.0,?
2017-06-01 17:27:51.762720,4534.87878743,12.3636363624,4219.60606018,0.0,3916.18181779,107.151515141,3899.18181779,317.333333302,4299.96969654,2777.69696942,4508.60606016,1903.99999981,4236.60606018,2868.36363608,4355.09090866,1364.12121198,5021.18181768,2996.12121182,4187.15151473,37.0909090872,4427.72727228,4.1212121208,4227.33333291,4.1212121208,4835.72727224,8.2424242416,4512.21212076,3787.39393902,42.0,42.0,?
2017-06-01 17:27:51.771711,4546.72727227,12.3636363624,4228.36363594,0.0,3911.03030264,107.151515141,3898.15151476,317.333333302,4301.51515109,2777.69696942,4513.75757531,1903.99999981,4246.90909048,2868.36363608,4361.27272684,1364.12121198,5022.21212071,2996.12121182,4207.24242382,37.0909090872,4435.45454501,4.1212121208,4230.93939352,4.1212121208,4850.66666618,8.2424242416,4511.69696925,3787.39393902,42.0,42.0,?
2017-06-01 17:27:51.780271,4535.90909046,12.3636363624,4223.21212079,0.0,3908.45454506,107.151515141,3899.69696931,317.333333302,4303.06060563,2777.69696942,4515.81818137,1903.99999981,4247.424242,2868.36363608,4363.3333329,1364.12121198,5017.57575707,2996.12121182,4199.5151511,37.0909090872,4422.57575713,4.1212121208,4226.8181814,4.1212121208,4832.63636315,8.2424242416,4510.1515147,3787.39393902,42.0,42.0,?
2017-06-01 17:27:51.785246,4535.90909046,12.3636363624,4220.1212117,0.0,3908.96969658,107.151515141,3899.18181779,317.333333302,4307.69696927,2777.69696942,4511.69696925,1903.99999981,4240.7272723,2868.36363608,4361.27272684,1364.12121198,5017.57575707,2996.12121182,4189.72727231,37.0909090872,4429.27272683,4.1212121208,4228.36363594,4.1212121208,4841.39393891,8.2424242416,4517.36363591,3787.39393902,42.0,42.0,?
2017-06-01 17:27:51.794364,4539.51515106,12.3636363624,4221.15151473,0.0,3907.42424203,107.151515141,3897.63636325,317.333333302,4307.18181775,2777.69696942,4506.54545409,1903.99999981,4228.87878746,2868.36363608,4352.51515108,1364.12121198,5007.78787829,2996.12121182,4192.8181814,37.0909090872,4424.63636319,4.1212121208,4227.84848443,4.1212121208,4843.45454497,8.2424242416,4521.48484803,3787.39393902,42.0,42.0,?
2017-06-01 17:27:51.801772,4535.39393894,12.3636363624,4220.63636321,0.0,3907.42424203,107.151515141,3897.63636325,317.333333302,4300.48484805,2777.69696942,4498.30302985,1903.99999981,4217.03030261,2868.36363608,4347.36363593,1364.12121198,5000.06060556,2996.12121182,4191.78787837,37.0909090872,4424.63636319,4.1212121208,4225.78787837,4.1212121208,4839.84848436,8.2424242416,4519.42424197,3787.39393902,42.0,42.0,?
2017-06-01 17:27:51.809329,4537.454545,12.3636363624,4224.75757534,0.0,3909.99999961,107.151515141,3894.54545416,317.333333302,4294.30302987,2777.69696942,4490.57575713,1903.99999981,4210.33333291,2868.36363608,4344.27272684,1364.12121198,4999.03030253,2996.12121182,4181.48484807,37.0909090872,4430.30302986,4.1212121208,4227.33333291,4.1212121208,4843.96969649,8.2424242416,4515.81818137,3787.39393902,42.0,42.0,?
2017-06-01 17:27:51.817249,4537.96969652,12.3636363624,4224.24242382,0.0,3914.12121173,107.151515141,3894.03030264,317.333333302,4290.69696927,2777.69696942,4490.06060561,1903.99999981,4210.84848443,2868.36363608,4339.12121169,1364.12121198,4988.21212071,2996.12121182,4179.42424201,37.0909090872,4426.18181774,4.1212121208,4227.33333291,4.1212121208,4841.39393891,8.2424242416,4517.36363591,3787.39393902,42.0,42.0,?
2017-06-01 17:27:51.824520,4535.39393894,12.3636363624,4219.60606018,0.0,3916.69696931,107.151515141,3900.21212082,317.333333302,4293.27272684,2777.69696942,4495.72727228,1903.99999981,4215.48484806,2868.36363608,4338.09090866,1364.12121198,4970.6969692,2996.12121182,4180.96969655,37.0909090872,4428.2424238,4.1212121208,4225.27272685,4.1212121208,4841.39393891,8.2424242416,4517.87878743,3787.39393902,42.0,42.0,?
2017-06-01 17:27:51.832197,4534.36363591,12.3636363624,4220.63636321,0.0,3912.57575718,107.151515141,3905.87878749,317.333333302,4297.90909048,2777.69696942,4499.8484844,1903.99999981,4225.27272685,2868.36363608,4347.36363593,1364.12121198,4971.72727223,2996.12121182,4172.72727231,37.0909090872,4430.81818138,4.1212121208,4223.21212079,4.1212121208,4839.33333285,8.2424242416,4513.24242379,3787.39393902,42.0,42.0,?
2017-06-01 17:27:51.839510,4534.36363591,12.3636363624,4223.21212079,0.0,3909.99999961,107.151515141,3909.48484809,317.333333302,4299.96969654,2777.69696942,4499.33333288,1903.99999981,4239.69696927,2868.36363608,4360.24242381,1364.12121198,5000.06060556,2996.12121182,4172.21212079,37.0909090872,4428.2424238,4.1212121208,4226.8181814,4.1212121208,4836.75757527,8.2424242416,4512.21212076,3787.39393902,42.0,42.0,?
2017-06-01 17:27:51.848064,4536.42424197,12.3636363624,4223.7272723,0.0,3918.24242385,107.151515141,3906.90909052,317.333333302,4305.12121169,2777.69696942,4498.81818137,1903.99999981,4245.87878745,2868.36363608,4363.3333329,1364.12121198,5026.33333283,2996.12121182,4191.78787837,37.0909090872,4426.69696925,4.1212121208,4229.90909049,4.1212121208,4841.39393891,8.2424242416,4519.42424197,3787.39393902,42.0,42.0,?
2017-06-01 17:27:51.855467,4534.87878743,8.2424242416,4222.18181776,0.0,3928.54545415,107.151515141,3907.42424203,317.333333302,4309.75757533,2777.69696942,4495.21212076,1903.99999981,4234.54545412,2868.36363608,4356.6363632,1364.12121198,5030.45454495,2996.12121182,4207.24242382,37.0909090872,4425.15151471,4.1212121208,4226.8181814,4.1212121208,4840.36363588,8.2424242416,4529.21212076,3787.39393902,42.0,42.0,?
2017-06-01 17:27:51.863441,4534.36363591,8.2424242416,4223.21212079,8.2424242416,3923.393939,107.151515141,3908.45454506,317.333333302,4306.15151472,2777.69696942,4484.90909046,1903.99999981,4223.7272723,2868.36363608,4350.45454502,1364.12121198,5020.15151465,2996.12121182,4205.18181776,37.0909090872,4427.72727228,4.1212121208,4226.8181814,4.1212121208,4838.81818133,8.2424242416,4536.42424197,3787.39393902,42.0,42.0,?
2017-06-01 17:27:51.873370,4536.93939349,8.2424242416,4225.78787837,8.2424242416,3914.12121173,107.151515141,3904.84848446,317.333333302,4302.0303026,2777.69696942,4484.39393895,1903.99999981,4222.69696927,2868.36363608,4350.96969653,1364.12121198,5004.6969692,2996.12121182,4198.99999958,37.0909090872,4427.72727228,4.1212121208,4229.90909049,4.1212121208,4840.36363588,8.2424242416,4533.33333288,3779.15151477,42.0,42.0,?
2017-06-01 17:27:51.878374,4535.39393894,8.2424242416,4223.7272723,8.2424242416,3917.72727234,107.151515141,3905.36363597,317.333333302,4304.09090866,2777.69696942,4491.09090864,1903.99999981,4227.84848443,2868.36363608,4355.09090866,1364.12121198,5003.15151465,2996.12121182,4205.18181776,37.0909090872,4424.63636319,4.1212121208,4227.84848443,4.1212121208,4840.36363588,8.2424242416,4522.51515106,3779.15151477,42.0,42.0,?
2017-06-01 17:27:51.886408,4535.39393894,8.2424242416,4221.15151473,8.2424242416,3925.96969658,107.151515141,3905.36363597,317.333333302,4305.12121169,2777.69696942,4482.33333289,1903.99999981,4235.57575715,2868.36363608,4363.84848441,1364.12121198,5012.93939344,2996.12121182,4217.03030261,37.0909090872,4426.18181774,4.1212121208,4226.30302988,4.1212121208,4840.87878739,8.2424242416,4527.66666621,3779.15151477,42.0,42.0,?
2017-06-01 17:27:51.894990,4535.90909046,8.2424242416,4223.7272723,8.2424242416,3933.18181779,107.151515141,3902.7878784,317.333333302,4304.09090866,2781.81818154,4475.12121167,1903.99999981,4241.75757533,2868.36363608,4371.57575714,1364.12121198,5017.57575707,2996.12121182,4219.60606018,37.0909090872,4426.69696925,4.1212121208,4229.90909049,4.1212121208,4837.7878783,8.2424242416,4549.81818136,3779.15151477,42.0,42.0,?
2017-06-01 17:27:51.903235,4534.36363591,8.2424242416,4225.78787837,8.2424242416,3938.84848445,107.151515141,3906.393939,317.333333302,4305.12121169,2781.81818154,4486.45454501,1899.87878769,4248.45454503,2868.36363608,4373.6363632,1364.12121198,5025.3030298,2996.12121182,4226.30302988,37.0909090872,4428.75757531,4.1212121208,4230.93939352,4.1212121208,4839.33333285,8.2424242416,4564.24242379,3779.15151477,42.0,42.0,?
2017-06-01 17:27:51.910841,4538.48484803,8.2424242416,4226.30302988,8.2424242416,3929.06060567,107.151515141,3912.57575718,317.333333302,4306.15151472,2781.81818154,4492.63636319,1899.87878769,4248.45454503,2872.4848482,4368.99999956,1364.12121198,5034.06060556,2996.12121182,4222.18181776,37.0909090872,4428.75757531,4.1212121208,4226.8181814,4.1212121208,4843.45454497,8.2424242416,4551.87878742,3779.15151477,42.0,42.0,?
2017-06-01 17:27:51.918633,4540.54545409,8.2424242416,4224.24242382,8.2424242416,3909.48484809,107.151515141,3911.03030264,317.333333302,4305.12121169,2781.81818154,4483.36363592,1899.87878769,4238.15151473,2872.4848482,4353.54545411,1364.12121198,5024.78787829,2996.12121182,4197.96969655,37.0909090872,4426.69696925,4.1212121208,4224.24242382,4.1212121208,4841.90909042,8.2424242416,4524.57575712,3779.15151477,42.0,42.0,?
2017-06-01 17:27:51.926025,4538.99999955,8.2424242416,4221.66666624,8.2424242416,3907.42424203,107.151515141,3904.84848446,317.333333302,4299.96969654,2781.81818154,4477.18181773,1899.87878769,4227.84848443,2872.4848482,4341.18181775,1364.12121198,5003.15151465,2996.12121182,4183.03030261,37.0909090872,4427.72727228,4.1212121208,4228.36363594,4.1212121208,4844.484848,8.2424242416,4512.21212076,3779.15151477,42.0,42.0,?
2017-06-01 17:27:51.935860,4537.96969652,8.2424242416,4221.15151473,8.2424242416,3913.0909087,107.151515141,3897.63636325,317.333333302,4295.84848442,2781.81818154,4483.87878743,1899.87878769,4226.8181814,2872.4848482,4344.78787835,1364.12121198,4993.87878738,2996.12121182,4186.63636322,32.9696969664,4425.66666622,4.1212121208,4227.33333291,4.1212121208,4842.93939346,8.2424242416,4516.8484844,3779.15151477,42.0,42.0,?
2017-06-01 17:27:51.941947,4537.454545,8.2424242416,4224.24242382,8.2424242416,3913.60606021,107.151515141,3896.0909087,317.333333302,4303.57575715,2781.81818154,4493.1515147,1899.87878769,4231.45454503,2872.4848482,4353.54545411,1364.12121198,5001.60606011,2996.12121182,4195.39393897,32.9696969664,4426.69696925,8.2424242416,4223.7272723,4.1212121208,4840.36363588,8.2424242416,4526.12121167,3779.15151477,42.0,42.0,?
2017-06-01 17:27:51.949583,4540.54545409,8.2424242416,4226.30302988,8.2424242416,3915.15151476,107.151515141,3901.75757537,317.333333302,4314.39393896,2781.81818154,4494.69696925,1899.87878769,4236.60606018,2872.4848482,4360.75757532,1364.12121198,5014.9999995,2996.12121182,4203.1212117,32.9696969664,4431.33333289,8.2424242416,4227.33333291,4.1212121208,4841.39393891,8.2424242416,4528.69696924,3779.15151477,42.0,42.0,?
2017-06-01 17:27:51.956977,4536.93939349,8.2424242416,4223.21212079,8.2424242416,3913.60606021,107.151515141,3901.24242385,317.333333302,4314.90909048,2781.81818154,4492.63636319,1899.87878769,4246.39393897,2872.4848482,4368.99999956,1364.12121198,5026.84848435,2996.12121182,4213.424242,32.9696969664,4427.21212077,8.2424242416,4229.90909049,4.1212121208,4838.81818133,4.1212121208,4520.96969652,3779.15151477,42.0,42.0,?
2017-06-01 17:27:51.964457,4535.39393894,8.2424242416,4221.66666624,8.2424242416,3901.24242385,107.151515141,3896.60606022,317.333333302,4310.27272684,2781.81818154,4493.1515147,1899.87878769,4252.06060564,2872.4848482,4367.96969653,1364.12121198,5029.93939344,2996.12121182,4220.1212117,41.212121208,4425.66666622,8.2424242416,4228.36363594,4.1212121208,4841.39393891,4.1212121208,4512.72727228,3779.15151477,42.0,42.0,?
2017-06-01 17:27:51.974243,4541.06060561,8.2424242416,4223.21212079,8.2424242416,3894.54545416,107.151515141,3895.57575719,317.333333302,4310.78787836,2781.81818154,4496.24242379,1899.87878769,4248.45454503,2872.4848482,4357.66666623,1364.12121198,5019.63636313,2996.12121182,4221.66666624,41.212121208,4427.72727228,0.0,4226.30302988,4.1212121208,4843.96969649,4.1212121208,4515.30302985,3779.15151477,42.0,42.0,?
2017-06-01 17:27:51.981011,4540.03030258,8.2424242416,4222.18181776,8.2424242416,3906.90909052,107.151515141,3896.0909087,317.333333302,4312.84848442,2781.81818154,4495.21212076,1899.87878769,4245.36363594,2872.4848482,4361.27272684,1364.12121198,5007.78787829,2996.12121182,4222.69696927,41.212121208,4428.75757531,0.0,4227.33333291,8.2424242416,4842.42424194,4.1212121208,4531.78787833,3779.15151477,42.0,42.0,?
2017-06-01 17:27:51.988364,4538.99999955,8.2424242416,4223.21212079,8.2424242416,3913.60606021,107.151515141,3893.51515113,317.333333302,4307.18181775,2781.81818154,4487.48484804,1899.87878769,4238.15151473,2872.4848482,4361.78787835,1364.12121198,5004.6969692,2996.12121182,4214.45454503,41.212121208,4428.2424238,0.0,4225.78787837,8.2424242416,4843.96969649,4.1212121208,4535.90909046,3779.15151477,42.0,42.0,?
2017-06-01 17:27:51.998544,4538.99999955,8.2424242416,4224.24242382,8.2424242416,3902.27272688,107.151515141,3888.87878749,317.333333302,4295.84848442,2781.81818154,4479.24242379,1899.87878769,4218.06060564,2872.4848482,4345.81818138,1364.12121198,5003.66666617,2996.12121182,4199.5151511,41.212121208,4426.18181774,0.0,4222.69696927,8.2424242416,4839.84848436,4.1212121208,4521.48484803,3779.15151477,42.0,42.0,?
2017-06-01 17:27:52.003951,4537.96969652,8.2424242416,4224.75757534,8.2424242416,3895.57575719,107.151515141,3889.393939,317.333333302,4291.21212078,2781.81818154,4479.75757531,1899.87878769,4211.87878746,2872.4848482,4342.72727229,1364.12121198,5002.12121162,2996.12121182,4180.45454504,41.212121208,4429.27272683,0.0,4224.24242382,8.2424242416,4839.84848436,4.1212121208,4502.42424197,3779.15151477,42.0,42.0,?
2017-06-01 17:27:52.011492,4540.03030258,8.2424242416,4226.8181814,8.2424242416,3900.72727234,107.151515141,3894.03030264,317.333333302,4291.7272723,2781.81818154,4479.24242379,1899.87878769,4223.21212079,2872.4848482,4353.03030259,1364.12121198,5004.6969692,2996.12121182,4170.15151473,41.212121208,4428.75757531,0.0,4225.27272685,8.2424242416,4842.42424194,4.1212121208,4489.5454541,3779.15151477,42.0,42.0,?
2017-06-01 17:27:52.021413,4537.96969652,8.2424242416,4226.30302988,8.2424242416,3902.7878784,107.151515141,3900.21212082,317.333333302,4294.81818139,2781.81818154,4476.1515147,1899.87878769,4222.69696927,2872.4848482,4353.03030259,1364.12121198,5003.15151465,2996.12121182,4181.48484807,41.212121208,4426.69696925,0.0,4225.78787837,8.2424242416,4841.39393891,4.1212121208,4482.33333289,3779.15151477,42.0,42.0,?
2017-06-01 17:27:52.028680,4537.454545,8.2424242416,4224.24242382,8.2424242416,3899.18181779,107.151515141,3900.72727234,317.333333302,4299.45454502,2781.81818154,4477.18181773,1899.87878769,4209.30302988,2872.4848482,4345.81818138,1364.12121198,4997.48484799,2996.12121182,4194.87878746,41.212121208,4428.75757531,0.0,4225.27272685,8.2424242416,4842.93939346,4.1212121208,4476.1515147,3779.15151477,42.0,42.0,?
2017-06-01 17:27:52.038037,4539.51515106,8.2424242416,4222.18181776,8.2424242416,3895.57575719,107.151515141,3896.60606022,317.333333302,4302.54545412,2781.81818154,4480.78787834,1899.87878769,4205.69696928,2872.4848482,4344.78787835,1364.12121198,4999.03030253,2996.12121182,4191.27272685,41.212121208,4425.66666622,0.0,4222.69696927,8.2424242416,4840.36363588,4.1212121208,4475.63636319,3779.15151477,42.0,42.0,?
2017-06-01 17:27:52.043161,4536.42424197,8.2424242416,4222.69696927,8.2424242416,3889.90909052,107.151515141,3898.15151476,317.333333302,4306.15151472,2781.81818154,4486.96969652,1899.87878769,4222.18181776,2872.4848482,4350.96969653,1364.12121198,5004.18181768,2996.12121182,4187.15151473,41.212121208,4425.66666622,0.0,4223.7272723,8.2424242416,4839.84848436,4.1212121208,4482.8484844,3779.15151477,42.0,42.0,?
2017-06-01 17:27:52.051308,4536.42424197,8.2424242416,4225.27272685,8.2424242416,3889.393939,107.151515141,3898.15151476,317.333333302,4309.24242381,2781.81818154,4494.18181773,1899.87878769,4242.78787836,2872.4848482,4356.12121169,1364.12121198,4999.03030253,2996.12121182,4201.57575716,41.212121208,4427.21212077,0.0,4227.33333291,8.2424242416,4841.39393891,4.1212121208,4497.27272682,3779.15151477,42.0,42.0,?
2017-06-01 17:27:52.063169,4537.96969652,8.2424242416,4222.69696927,8.2424242416,3900.21212082,107.151515141,3892.4848481,317.333333302,4307.18181775,2781.81818154,4496.24242379,1899.87878769,4252.57575715,2872.4848482,4360.24242381,1364.12121198,4995.93939344,2996.12121182,4220.1212117,41.212121208,4426.18181774,0.0,4228.87878746,8.2424242416,4838.81818133,4.1212121208,4515.30302985,3779.15151477,42.0,42.0,?
2017-06-01 17:27:52.069226,4541.06060561,8.2424242416,4220.63636321,8.2424242416,3912.06060567,107.151515141,3887.84848446,317.333333302,4304.09090866,2781.81818154,4494.18181773,1899.87878769,4251.54545412,2872.4848482,4361.27272684,1364.12121198,5009.84848435,2996.12121182,4226.30302988,41.212121208,4427.21212077,0.0,4232.48484806,8.2424242416,4841.39393891,4.1212121208,4531.27272682,3779.15151477,42.0,42.0,?
2017-06-01 17:27:52.076307,4541.06060561,8.2424242416,4222.18181776,8.2424242416,3912.06060567,107.151515141,3887.84848446,317.333333302,4301.51515109,2781.81818154,4490.06060561,1899.87878769,4242.27272685,2872.4848482,4358.69696926,1364.12121198,5024.78787829,2996.12121182,4221.15151473,41.212121208,4425.66666622,0.0,4230.93939352,8.2424242416,4840.36363588,4.1212121208,4531.78787833,3779.15151477,42.0,42.0,?
2017-06-01 17:27:52.083024,4540.03030258,8.2424242416,4221.66666624,8.2424242416,3896.60606022,107.151515141,3887.84848446,317.333333302,4290.18181775,2781.81818154,4480.27272682,1899.87878769,4223.7272723,2872.4848482,4349.9393935,1364.12121198,5014.9999995,2996.12121182,4205.18181776,41.212121208,4428.2424238,0.0,4224.75757534,8.2424242416,4839.33333285,4.1212121208,4506.54545409,3779.15151477,42.0,42.0,?
2017-06-01 17:27:52.089431,4541.06060561,8.2424242416,4223.7272723,8.2424242416,3887.33333294,107.151515141,3887.33333294,317.333333302,4281.424242,2781.81818154,4469.96969652,1899.87878769,4208.27272685,2872.4848482,4342.72727229,1364.12121198,4999.54545405,2996.12121182,4187.15151473,41.212121208,4429.78787834,0.0,4222.69696927,8.2424242416,4840.87878739,4.1212121208,4482.8484844,3779.15151477,42.0,42.0,?
2017-06-01 17:27:52.098342,4536.42424197,8.2424242416,4224.75757534,8.2424242416,3900.21212082,107.151515141,3892.4848481,317.333333302,4285.54545412,2781.81818154,4465.8484844,1899.87878769,4208.78787837,2872.4848482,4343.75757532,1364.12121198,5005.21212071,2996.12121182,4181.99999958,41.212121208,4425.15151471,0.0,4222.18181776,8.2424242416,4837.7878783,4.1212121208,4484.90909046,3779.15151477,42.0,42.0,?
2017-06-01 17:27:52.107482,4536.93939349,8.2424242416,4221.15151473,8.2424242416,3911.03030264,107.151515141,3897.12121173,317.333333302,4289.66666624,2781.81818154,4463.27272683,1899.87878769,4206.21212079,2872.4848482,4344.27272684,1364.12121198,5006.24242374,2996.12121182,4183.54545413,41.212121208,4428.2424238,0.0,4223.21212079,8.2424242416,4840.87878739,4.1212121208,4491.09090864,3779.15151477,42.0,42.0,?
2017-06-01 17:27:52.114225,4540.03030258,8.2424242416,4221.15151473,8.2424242416,3907.93939355,107.151515141,3899.69696931,317.333333302,4288.12121169,2781.81818154,4463.27272683,1899.87878769,4197.96969655,2872.4848482,4341.69696926,1364.12121198,4986.66666617,2996.12121182,4183.54545413,41.212121208,4428.2424238,0.0,4224.75757534,8.2424242416,4842.93939346,4.1212121208,4486.45454501,3779.15151477,42.0,42.0,?
2017-06-01 17:27:52.122884,4537.96969652,8.2424242416,4222.69696927,8.2424242416,3904.84848446,107.151515141,3899.18181779,317.333333302,4290.18181775,2781.81818154,4468.42424198,1899.87878769,4203.1212117,2872.4848482,4335.51515108,1364.12121198,4978.93939344,2996.12121182,4179.93939352,41.212121208,4426.69696925,0.0,4224.24242382,8.2424242416,4840.36363588,4.1212121208,4485.42424198,3779.15151477,42.0,42.0,?
2017-06-01 17:27:52.129207,4539.51515106,8.2424242416,4222.69696927,8.2424242416,3897.63636325,107.151515141,3894.54545416,317.333333302,4291.7272723,2781.81818154,4473.57575713,1899.87878769,4207.75757534,2872.4848482,4328.81818139,1364.12121198,4975.84848435,2996.12121182,4171.69696928,41.212121208,4430.30302986,0.0,4222.69696927,8.2424242416,4840.36363588,4.1212121208,4484.90909046,3779.15151477,42.0,42.0,?
2017-06-01 17:27:52.138065,4540.03030258,8.2424242416,4222.69696927,8.2424242416,3888.87878749,107.151515141,3892.99999961,317.333333302,4294.30302987,2781.81818154,4476.66666622,1899.87878769,4208.27272685,2872.4848482,4336.0303026,1364.12121198,4963.48484799,2996.12121182,4170.66666625,41.212121208,4429.78787834,0.0,4222.18181776,8.2424242416,4838.81818133,4.1212121208,4490.57575713,3779.15151477,42.0,42.0,?
2017-06-01 17:27:52.145109,4538.99999955,8.2424242416,4224.24242382,8.2424242416,3885.7878784,107.151515141,3895.57575719,317.333333302,4305.12121169,2781.81818154,4489.5454541,1899.87878769,4226.30302988,2872.4848482,4353.03030259,1364.12121198,4972.75757526,2996.12121182,4184.57575716,41.212121208,4428.75757531,0.0,4225.78787837,8.2424242416,4841.90909042,4.1212121208,4509.63636319,3779.15151477,42.0,42.0,?
2017-06-01 17:27:52.152458,4540.54545409,8.2424242416,4223.7272723,8.2424242416,3884.24242385,107.151515141,3894.54545416,317.333333302,4312.3333329,2781.81818154,4510.1515147,1899.87878769,4251.03030261,2872.4848482,4361.78787835,1364.12121198,4996.45454495,2996.12121182,4199.5151511,41.212121208,4427.72727228,0.0,4227.84848443,8.2424242416,4843.45454497,4.1212121208,4524.06060561,3779.15151477,42.0,42.0,?
2017-06-01 17:27:52.162321,4534.87878743,8.2424242416,4222.69696927,8.2424242416,3891.96969658,107.151515141,3890.42424204,317.333333302,4309.75757533,2781.81818154,4518.39393894,1899.87878769,4256.69696927,2872.4848482,4363.84848441,1364.12121198,5010.36363586,2996.12121182,4211.36363594,41.212121208,4428.2424238,0.0,4226.8181814,8.2424242416,4840.87878739,4.1212121208,4525.60606015,3779.15151477,42.0,42.0,?
2017-06-01 17:27:52.171511,4536.93939349,8.2424242416,4226.30302988,8.2424242416,3901.75757537,107.151515141,3886.81818143,317.333333302,4306.66666624,2781.81818154,4516.8484844,1899.87878769,4248.96969654,2872.4848482,4367.45454502,1364.12121198,5017.57575707,2996.12121182,4220.1212117,41.212121208,4430.30302986,0.0,4227.84848443,8.2424242416,4842.93939346,4.1212121208,4528.69696924,3779.15151477,42.0,42.0,?
2017-06-01 17:27:52.178088,4542.60606015,8.2424242416,4225.27272685,8.2424242416,3901.24242385,107.151515141,3884.75757537,317.333333302,4302.54545412,2781.81818154,4510.66666622,1899.87878769,4238.15151473,2872.4848482,4364.36363593,1364.12121198,5023.75757526,2996.12121182,4217.54545412,41.212121208,4428.75757531,0.0,4228.87878746,8.2424242416,4841.39393891,4.1212121208,4528.18181773,3779.15151477,42.0,42.0,?
2017-06-01 17:27:52.183655,4540.03030258,8.2424242416,4222.69696927,8.2424242416,3898.66666628,107.151515141,3888.87878749,317.333333302,4294.30302987,2781.81818154,4498.30302985,1899.87878769,4223.7272723,2872.4848482,4353.54545411,1364.12121198,5020.66666616,2996.12121182,4204.15151473,41.212121208,4429.78787834,0.0,4227.33333291,8.2424242416,4843.45454497,4.1212121208,4515.30302985,3779.15151477,42.0,42.0,?
2017-06-01 17:27:52.193168,4539.51515106,8.2424242416,4224.24242382,8.2424242416,3899.69696931,107.151515141,3893.51515113,317.333333302,4289.66666624,2781.81818154,4492.12121167,1899.87878769,4214.45454503,2872.4848482,4344.78787835,1364.12121198,5010.36363586,2996.12121182,4193.33333291,41.212121208,4429.27272683,0.0,4223.7272723,8.2424242416,4844.99999952,4.1212121208,4503.454545,3779.15151477,42.0,42.0,?
2017-06-01 17:27:52.199957,4542.60606015,8.2424242416,4224.75757534,8.2424242416,3904.84848446,107.151515141,3896.0909087,317.333333302,4290.18181775,2781.81818154,4496.75757531,1899.87878769,4215.99999958,2872.4848482,4342.72727229,1364.12121198,4996.96969647,2996.12121182,4190.24242382,41.212121208,4426.18181774,0.0,4222.69696927,8.2424242416,4839.84848436,4.1212121208,4502.93939349,3779.15151477,42.0,42.0,?
2017-06-01 17:27:52.207629,4544.66666621,8.2424242416,4224.24242382,8.2424242416,3912.06060567,107.151515141,3897.63636325,317.333333302,4287.09090866,2781.81818154,4494.69696925,1899.87878769,4220.1212117,2872.4848482,4345.30302987,1364.12121198,4980.9999995,2996.12121182,4184.57575716,41.212121208,4426.18181774,0.0,4223.7272723,8.2424242416,4842.42424194,4.1212121208,4509.63636319,3779.15151477,42.0,42.0,?
2017-06-01 17:27:52.217756,4539.51515106,8.2424242416,4223.21212079,8.2424242416,3912.57575718,107.151515141,3898.66666628,317.333333302,4286.06060563,2781.81818154,4489.03030258,1899.87878769,4224.24242382,2872.4848482,4345.81818138,1364.12121198,4978.42424193,2996.12121182,4185.09090867,41.212121208,4425.15151471,0.0,4223.21212079,8.2424242416,4841.90909042,4.1212121208,4515.30302985,3779.15151477,42.0,42.0,?
2017-06-01 17:27:52.223121,4536.93939349,8.2424242416,4222.69696927,8.2424242416,3904.84848446,107.151515141,3896.60606022,317.333333302,4291.7272723,2781.81818154,4494.18181773,1899.87878769,4234.03030261,2872.4848482,4348.39393896,1364.12121198,4988.72727223,2996.12121182,4199.5151511,41.212121208,4426.18181774,0.0,4226.30302988,8.2424242416,4841.39393891,4.1212121208,4516.8484844,3779.15151477,42.0,42.0,?
2017-06-01 17:27:52.232767,4543.12121167,8.2424242416,4224.75757534,8.2424242416,3897.12121173,107.151515141,3891.96969658,317.333333302,4297.39393896,2781.81818154,4499.33333288,1899.87878769,4240.7272723,2872.4848482,4354.06060563,1364.12121198,4999.54545405,2996.12121182,4204.66666625,41.212121208,4427.72727228,0.0,4226.8181814,8.2424242416,4842.42424194,4.1212121208,4513.75757531,3779.15151477,42.0,42.0,?
2017-06-01 17:27:52.239440,4539.51515106,8.2424242416,4224.75757534,8.2424242416,3889.90909052,107.151515141,3896.0909087,317.333333302,4302.54545412,2781.81818154,4496.24242379,1899.87878769,4240.7272723,2872.4848482,4357.15151472,1364.12121198,5008.81818132,2996.12121182,4197.45454503,41.212121208,4426.69696925,0.0,4223.21212079,8.2424242416,4837.7878783,4.1212121208,4514.78787834,3779.15151477,42.0,42.0,?
2017-06-01 17:27:52.248251,4538.99999955,8.2424242416,4224.24242382,8.2424242416,3884.24242385,107.151515141,3900.72727234,317.333333302,4307.18181775,2781.81818154,4493.1515147,1899.87878769,4240.21212079,2872.4848482,4361.78787835,1364.12121198,5013.96969647,2996.12121182,4204.15151473,41.212121208,4427.72727228,0.0,4225.27272685,8.2424242416,4841.39393891,4.1212121208,4520.454545,3779.15151477,42.0,42.0,?
2017-06-01 17:27:52.257037,4543.63636318,8.2424242416,4223.21212079,8.2424242416,3882.69696931,107.151515141,3896.60606022,317.333333302,4312.3333329,2781.81818154,4497.27272682,1899.87878769,4242.78787836,2872.4848482,4367.45454502,1364.12121198,5017.57575707,2996.12121182,4213.93939352,41.212121208,4424.63636319,0.0,4226.30302988,8.2424242416,4844.484848,4.1212121208,4523.54545409,3779.15151477,42.0,42.0,?
2017-06-01 17:27:52.263710,4538.99999955,8.2424242416,4223.7272723,8.2424242416,3885.27272688,107.151515141,3891.96969658,317.333333302,4313.36363593,2781.81818154,4497.78787834,1899.87878769,4246.39393897,2872.4848482,4368.48484805,1364.12121198,5017.06060556,2996.12121182,4215.99999958,41.212121208,4424.63636319,0.0,4224.75757534,8.2424242416,4842.42424194,4.1212121208,4523.54545409,3779.15151477,42.0,42.0,?
2017-06-01 17:27:52.270027,4537.96969652,8.2424242416,4226.30302988,8.2424242416,3895.06060567,107.151515141,3889.393939,317.333333302,4309.75757533,2781.81818154,4487.48484804,1899.87878769,4245.36363594,2872.4848482,4367.96969653,1364.12121198,5009.33333283,2996.12121182,4226.30302988,41.212121208,4427.21212077,0.0,4227.84848443,8.2424242416,4840.87878739,4.1212121208,4526.63636318,3779.15151477,42.0,42.0,?
2017-06-01 17:27:52.279197,4542.09090864,8.2424242416,4224.75757534,8.2424242416,3908.96969658,107.151515141,3890.93939355,317.333333302,4305.12121169,2781.81818154,4478.21212076,1899.87878769,4241.75757533,2872.4848482,4374.15151471,1364.12121198,5013.96969647,2996.12121182,4234.03030261,41.212121208,4426.18181774,0.0,4229.39393897,8.2424242416,4838.81818133,4.1212121208,4531.78787833,3779.15151477,42.0,42.0,?
2017-06-01 17:27:52.285930,4542.60606015,8.2424242416,4223.7272723,8.2424242416,3904.84848446,107.151515141,3891.96969658,317.333333302,4297.90909048,2781.81818154,4477.69696925,1899.87878769,4234.54545412,2872.4848482,4370.03030259,1364.12121198,5024.78787829,2996.12121182,4215.99999958,41.212121208,4428.75757531,0.0,4225.27272685,8.2424242416,4844.484848,4.1212121208,4521.99999955,3779.15151477,42.0,42.0,?
2017-06-01 17:27:52.296610,4541.57575712,8.2424242416,4226.30302988,8.2424242416,3886.81818143,107.151515141,3892.4848481,317.333333302,4292.75757533,2781.81818154,4483.87878743,1899.87878769,4226.8181814,2872.4848482,4350.96969653,1364.12121198,5012.42424192,2996.12121182,4188.69696928,41.212121208,4428.2424238,0.0,4221.66666624,8.2424242416,4846.03030255,4.1212121208,4496.75757531,3779.15151477,42.0,42.0,?
2017-06-01 17:27:52.303786,4539.51515106,8.2424242416,4223.7272723,8.2424242416,3887.33333294,107.151515141,3896.0909087,317.333333302,4294.30302987,2781.81818154,4478.72727228,1899.87878769,4226.30302988,2872.4848482,4341.69696926,1364.12121198,4992.33333283,2996.12121182,4177.87878746,41.212121208,4427.72727228,0.0,4223.21212079,8.2424242416,4842.93939346,4.1212121208,4486.45454501,3779.15151477,42.0,42.0,?
2017-06-01 17:27:52.309238,4540.54545409,8.2424242416,4223.7272723,8.2424242416,3899.18181779,107.151515141,3896.0909087,317.333333302,4291.7272723,2781.81818154,4464.30302986,1899.87878769,4220.63636321,2872.4848482,4340.15151472,1364.12121198,4980.48484799,2996.12121182,4173.75757534,41.212121208,4430.30302986,0.0,4222.69696927,8.2424242416,4842.93939346,4.1212121208,4498.30302985,3779.15151477,42.0,42.0,?
2017-06-01 17:27:52.316617,4538.99999955,8.2424242416,4226.30302988,8.2424242416,3903.30302991,107.151515141,3892.4848481,317.333333302,4287.60606018,2781.81818154,4468.93939349,1899.87878769,4210.33333291,2872.4848482,4335.51515108,1364.12121198,4972.24242375,2996.12121182,4171.18181776,41.212121208,4427.21212077,0.0,4221.66666624,8.2424242416,4837.7878783,4.1212121208,4511.18181773,3779.15151477,42.0,42.0,?
2017-06-01 17:27:52.325077,4537.454545,8.2424242416,4226.30302988,8.2424242416,3912.57575718,107.151515141,3898.15151476,317.333333302,4292.75757533,2781.81818154,4483.36363592,1899.87878769,4217.03030261,2872.4848482,4336.54545411,1364.12121198,4977.90909041,2996.12121182,4177.87878746,41.212121208,4428.2424238,0.0,4225.78787837,8.2424242416,4840.87878739,4.1212121208,4520.454545,3779.15151477,42.0,42.0,?
2017-06-01 17:27:52.332599,4539.51515106,8.2424242416,4224.24242382,8.2424242416,3917.72727234,107.151515141,3904.33333294,317.333333302,4297.39393896,2781.81818154,4481.81818137,1899.87878769,4227.84848443,2872.4848482,4344.78787835,1364.12121198,4989.24242374,2996.12121182,4189.21212079,41.212121208,4428.2424238,0.0,4224.75757534,8.2424242416,4843.96969649,4.1212121208,4525.60606015,3779.15151477,42.0,42.0,?
2017-06-01 17:27:52.342276,4538.48484803,8.2424242416,4222.69696927,8.2424242416,3905.87878749,107.151515141,3899.69696931,317.333333302,4298.42424199,2781.81818154,4476.1515147,1899.87878769,4225.78787837,2872.4848482,4351.99999956,1364.12121198,4990.78787829,2996.12121182,4202.60606019,41.212121208,4427.72727228,0.0,4225.27272685,8.2424242416,4838.30302982,4.1212121208,4524.57575712,3779.15151477,42.0,42.0,?
2017-06-01 17:27:52.348477,4539.51515106,8.2424242416,4223.7272723,8.2424242416,3897.63636325,107.151515141,3898.66666628,317.333333302,4302.54545412,2781.81818154,4483.36363592,1899.87878769,4230.424242,2872.4848482,4354.57575714,1364.12121198,4992.33333283,2996.12121182,4209.30302988,41.212121208,4428.2424238,0.0,4230.93939352,8.2424242416,4839.33333285,4.1212121208,4526.63636318,3779.15151477,42.0,42.0,?
2017-06-01 17:27:52.357178,4538.99999955,8.2424242416,4224.75757534,8.2424242416,3899.69696931,107.151515141,3899.69696931,317.333333302,4305.63636321,2781.81818154,4489.5454541,1899.87878769,4242.78787836,2872.4848482,4359.21212078,1364.12121198,5002.12121162,2996.12121182,4211.36363594,41.212121208,4424.63636319,0.0,4228.87878746,8.2424242416,4841.39393891,4.1212121208,4527.66666621,3779.15151477,42.0,42.0,?
2017-06-01 17:27:52.363414,4539.51515106,8.2424242416,4224.24242382,8.2424242416,3900.21212082,107.151515141,3897.12121173,317.333333302,4307.18181775,2781.81818154,4491.09090864,1899.87878769,4249.99999958,2872.4848482,4371.06060562,1364.12121198,5018.6060601,2996.12121182,4222.69696927,41.212121208,4425.66666622,0.0,4224.75757534,8.2424242416,4842.42424194,4.1212121208,4530.7575753,3779.15151477,42.0,42.0,?
2017-06-01 17:27:52.371385,4541.57575712,8.2424242416,4224.75757534,0.0,3902.27272688,107.151515141,3899.18181779,317.333333302,4310.27272684,2781.81818154,4498.30302985,1899.87878769,4255.15151473,2872.4848482,4379.81818138,1364.12121198,5040.75757525,2996.12121182,4236.60606018,41.212121208,4427.21212077,0.0,4226.8181814,8.2424242416,4841.39393891,4.1212121208,4541.57575712,3779.15151477,42.0,42.0,?
2017-06-01 17:27:52.380168,4536.42424197,8.2424242416,4222.69696927,0.0,3909.48484809,107.151515141,3898.66666628,317.333333302,4308.21212078,2781.81818154,4499.8484844,1899.87878769,4257.7272723,2872.4848482,4377.75757532,1364.12121198,5044.87878737,2996.12121182,4234.54545412,41.212121208,4425.66666622,0.0,4227.84848443,8.2424242416,4838.81818133,4.1212121208,4545.69696924,3787.39393902,42.0,42.0,?
2017-06-01 17:27:52.387992,4537.96969652,8.2424242416,4222.69696927,0.0,3913.0909087,111.272727262,3896.0909087,317.333333302,4299.96969654,2781.81818154,4483.36363592,1899.87878769,4248.45454503,2872.4848482,4371.06060562,1364.12121198,5029.93939344,2996.12121182,4217.54545412,41.212121208,4426.18181774,0.0,4224.24242382,8.2424242416,4839.84848436,4.1212121208,4535.90909046,3787.39393902,42.0,42.0,?
2017-06-01 17:27:52.394635,4541.06060561,8.2424242416,4223.7272723,0.0,3908.45454506,111.272727262,3903.81818143,321.454545422,4293.27272684,2781.81818154,4466.36363592,1899.87878769,4238.15151473,2872.4848482,4362.81818138,1364.12121198,5023.75757526,2996.12121182,4204.15151473,41.212121208,4425.66666622,0.0,4223.7272723,8.2424242416,4838.30302982,4.1212121208,4520.96969652,3787.39393902,42.0,42.0,?
2017-06-01 17:27:52.408434,4538.48484803,8.2424242416,4224.24242382,0.0,3904.33333294,111.272727262,3909.99999961,321.454545422,4293.78787836,2781.81818154,4470.99999955,1899.87878769,4234.03030261,2872.4848482,4358.18181775,1364.12121198,5018.09090859,2996.12121182,4193.33333291,41.212121208,4429.27272683,0.0,4224.75757534,8.2424242416,4841.39393891,4.1212121208,4507.57575713,3787.39393902,42.0,42.0,?
2017-06-01 17:27:52.410980,4540.54545409,8.2424242416,4224.75757534,0.0,3909.99999961,111.272727262,3907.93939355,321.454545422,4296.87878745,2781.81818154,4475.63636319,1895.75757557,4229.39393897,2872.4848482,4359.21212078,1364.12121198,4999.54545405,2996.12121182,4186.63636322,41.212121208,4429.78787834,0.0,4222.18181776,8.2424242416,4843.45454497,4.1212121208,4506.03030258,3787.39393902,42.0,42.0,?
2017-06-01 17:27:52.421585,4540.03030258,8.2424242416,4223.21212079,0.0,3921.33333294,111.272727262,3910.51515112,321.454545422,4295.84848442,2781.81818154,4469.45454501,1895.75757557,4222.69696927,2868.36363608,4356.6363632,1364.12121198,4990.78787829,2996.12121182,4192.8181814,41.212121208,4426.18181774,0.0,4222.18181776,8.2424242416,4839.33333285,4.1212121208,4518.39393894,3787.39393902,42.0,42.0,?
2017-06-01 17:27:52.427742,4541.06060561,8.2424242416,4224.24242382,0.0,3919.27272688,111.272727262,3910.51515112,321.454545422,4294.81818139,2781.81818154,4472.03030258,1895.75757557,4219.09090867,2868.36363608,4345.30302987,1355.87878774,4998.51515102,2996.12121182,4201.06060564,41.212121208,4428.2424238,0.0,4225.78787837,8.2424242416,4843.45454497,4.1212121208,4521.48484803,3787.39393902,42.0,42.0,?
2017-06-01 17:27:52.433652,4542.09090864,8.2424242416,4225.78787837,0.0,3904.84848446,111.272727262,3902.27272688,321.454545422,4299.45454502,2781.81818154,4481.30302985,1895.75757557,4218.57575715,2868.36363608,4340.15151472,1355.87878774,4997.9999995,2996.12121182,4201.06060564,41.212121208,4426.69696925,0.0,4222.69696927,8.2424242416,4843.96969649,4.1212121208,4516.33333288,3787.39393902,42.0,42.0,?
2017-06-01 17:27:52.443324,4537.96969652,8.2424242416,4223.21212079,0.0,3895.57575719,111.272727262,3899.18181779,321.454545422,4303.57575715,2781.81818154,4481.81818137,1895.75757557,4223.7272723,2868.36363608,4348.90909047,1355.87878774,4990.27272677,2996.12121182,4203.1212117,32.9696969664,4427.21212077,0.0,4222.69696927,8.2424242416,4841.90909042,4.1212121208,4515.81818137,3787.39393902,42.0,42.0,?
2017-06-01 17:27:52.449513,4540.54545409,8.2424242416,4223.21212079,0.0,3888.36363597,111.272727262,3894.03030264,321.454545422,4302.0303026,2781.81818154,4484.90909046,1895.75757557,4229.90909049,2868.36363608,4355.60606017,1355.87878774,4993.87878738,2996.12121182,4204.15151473,32.9696969664,4430.30302986,8.2424242416,4229.90909049,8.2424242416,4842.42424194,4.1212121208,4512.21212076,3787.39393902,42.0,42.0,?
2017-06-01 17:27:52.457452,4542.09090864,8.2424242416,4224.75757534,0.0,3884.24242385,111.272727262,3890.42424204,321.454545422,4304.09090866,2781.81818154,4493.66666622,1895.75757557,4239.69696927,2868.36363608,4360.24242381,1355.87878774,5004.18181768,2996.12121182,4204.15151473,32.9696969664,4426.69696925,8.2424242416,4228.36363594,12.3636363624,4839.84848436,4.1212121208,4511.69696925,3787.39393902,42.0,42.0,?
2017-06-01 17:27:52.466407,4541.06060561,8.2424242416,4224.24242382,0.0,3885.27272688,111.272727262,3897.12121173,321.454545422,4309.75757533,2781.81818154,4498.30302985,1895.75757557,4251.03030261,2868.36363608,4370.03030259,1355.87878774,5009.84848435,2996.12121182,4214.45454503,32.9696969664,4424.63636319,8.2424242416,4224.75757534,12.3636363624,4842.93939346,0.0,4515.30302985,3787.39393902,42.0,42.0,?
2017-06-01 17:27:52.473873,4541.06060561,8.2424242416,4224.24242382,0.0,3887.84848446,111.272727262,3904.84848446,321.454545422,4315.42424199,2781.81818154,4500.36363591,1895.75757557,4259.78787836,2868.36363608,4378.27272683,1355.87878774,5020.15151465,2996.12121182,4221.66666624,32.9696969664,4427.72727228,8.2424242416,4226.8181814,12.3636363624,4841.90909042,0.0,4520.454545,3787.39393902,42.0,42.0,?
2017-06-01 17:27:52.481215,4539.51515106,8.2424242416,4224.24242382,0.0,3892.99999961,111.272727262,3908.96969658,321.454545422,4319.0303026,2781.81818154,4498.30302985,1895.75757557,4266.99999957,2868.36363608,4383.42424199,1355.87878774,5042.81818131,2996.12121182,4223.21212079,32.9696969664,4432.36363592,0.0,4228.87878746,12.3636363624,4839.33333285,0.0,4531.78787833,3787.39393902,42.0,42.0,?
2017-06-01 17:27:52.489561,4540.03030258,8.2424242416,4223.21212079,0.0,3894.03030264,111.272727262,3908.45454506,321.454545422,4311.81818139,2781.81818154,4485.93939349,1895.75757557,4259.27272685,2868.36363608,4381.36363593,1355.87878774,5048.48484798,2996.12121182,4224.24242382,32.9696969664,4430.30302986,0.0,4226.8181814,12.3636363624,4843.45454497,0.0,4535.90909046,3787.39393902,42.0,42.0,?
2017-06-01 17:27:52.498596,4539.51515106,8.2424242416,4222.69696927,0.0,3888.87878749,111.272727262,3904.33333294,321.454545422,4302.54545412,2781.81818154,4478.72727228,1895.75757557,4236.09090867,2868.36363608,4368.48484805,1355.87878774,5029.42424192,2996.12121182,4213.424242,32.9696969664,4424.63636319,0.0,4225.78787837,12.3636363624,4841.90909042,0.0,4523.54545409,3787.39393902,42.0,42.0,?
2017-06-01 17:27:52.505120,4541.06060561,8.2424242416,4225.27272685,0.0,3885.27272688,111.272727262,3901.24242385,321.454545422,4304.09090866,2781.81818154,4481.30302985,1895.75757557,4229.39393897,2868.36363608,4361.78787835,1355.87878774,5014.9999995,2996.12121182,4200.03030261,32.9696969664,4427.21212077,0.0,4226.8181814,12.3636363624,4841.39393891,0.0,4512.72727228,3787.39393902,42.0,42.0,?
2017-06-01 17:27:52.513940,4542.60606015,8.2424242416,4225.78787837,0.0,3892.99999961,111.272727262,3899.18181779,321.454545422,4308.21212078,2781.81818154,4484.39393895,1895.75757557,4238.66666624,2868.36363608,4365.90909047,1355.87878774,5019.12121162,2996.12121182,4204.15151473,32.9696969664,4426.18181774,0.0,4225.78787837,12.3636363624,4841.90909042,0.0,4519.93939349,3787.39393902,42.0,42.0,?
2017-06-01 17:27:52.520665,4539.51515106,8.2424242416,4220.63636321,0.0,3910.51515112,111.272727262,3899.69696931,321.454545422,4306.15151472,2781.81818154,4484.90909046,1895.75757557,4239.18181776,2868.36363608,4362.30302987,1355.87878774,5021.18181768,2996.12121182,4215.99999958,32.9696969664,4424.63636319,0.0,4224.24242382,12.3636363624,4841.39393891,0.0,4537.454545,3787.39393902,42.0,42.0,?
2017-06-01 17:27:52.530056,4540.03030258,8.2424242416,4222.18181776,0.0,3918.75757537,111.272727262,3901.24242385,321.454545422,4299.45454502,2781.81818154,4482.33333289,1895.75757557,4232.48484806,2868.36363608,4349.42424199,1355.87878774,5012.42424192,2996.12121182,4208.78787837,32.9696969664,4428.75757531,0.0,4225.78787837,12.3636363624,4841.90909042,0.0,4544.66666621,3787.39393902,42.0,42.0,?
2017-06-01 17:27:52.535639,4539.51515106,8.2424242416,4225.27272685,0.0,3908.45454506,111.272727262,3903.30302991,321.454545422,4295.84848442,2781.81818154,4479.24242379,1895.75757557,4227.84848443,2868.36363608,4342.72727229,1355.87878774,4993.87878738,2996.12121182,4200.54545413,32.9696969664,4426.18181774,0.0,4225.27272685,12.3636363624,4839.33333285,0.0,4532.81818136,3787.39393902,42.0,42.0,?
2017-06-01 17:27:52.545025,4538.48484803,8.2424242416,4222.69696927,0.0,3899.69696931,111.272727262,3903.30302991,321.454545422,4297.90909048,2781.81818154,4479.24242379,1895.75757557,4226.8181814,2868.36363608,4344.27272684,1355.87878774,4975.84848435,2996.12121182,4206.21212079,32.9696969664,4427.21212077,0.0,4223.7272723,12.3636363624,4840.36363588,0.0,4516.33333288,3787.39393902,42.0,42.0,?
2017-06-01 17:27:52.552081,4542.09090864,8.2424242416,4222.69696927,0.0,3904.84848446,111.272727262,3906.393939,321.454545422,4301.51515109,2781.81818154,4480.78787834,1895.75757557,4233.51515109,2868.36363608,4354.57575714,1355.87878774,4987.18181768,2996.12121182,4212.39393897,32.9696969664,4427.21212077,0.0,4222.69696927,12.3636363624,4843.96969649,0.0,4518.39393894,3787.39393902,42.0,42.0,?
2017-06-01 17:27:52.559618,4539.51515106,8.2424242416,4222.69696927,0.0,3914.12121173,111.272727262,3911.03030264,321.454545422,4303.06060563,2781.81818154,4475.12121167,1895.75757557,4242.27272685,2868.36363608,4367.96969653,1355.87878774,5021.18181768,2996.12121182,4217.03030261,32.9696969664,4426.69696925,0.0,4223.21212079,12.3636363624,4841.39393891,0.0,4531.27272682,3787.39393902,42.0,42.0,?
2017-06-01 17:27:52.567002,4538.48484803,8.2424242416,4224.24242382,0.0,3914.63636324,111.272727262,3907.93939355,321.454545422,4300.99999957,2781.81818154,4473.06060561,1895.75757557,4235.06060564,2868.36363608,4365.39393896,1355.87878774,5035.09090859,2996.12121182,4220.1212117,32.9696969664,4428.75757531,0.0,4225.78787837,12.3636363624,4840.87878739,0.0,4532.81818136,3787.39393902,42.0,42.0,?
2017-06-01 17:27:52.574428,4540.03030258,8.2424242416,4225.27272685,0.0,3910.51515112,111.272727262,3905.36363597,321.454545422,4300.99999957,2781.81818154,4484.90909046,1895.75757557,4223.7272723,2868.36363608,4357.15151472,1355.87878774,5030.45454495,2996.12121182,4217.03030261,32.9696969664,4425.15151471,0.0,4225.78787837,12.3636363624,4839.84848436,0.0,4527.1515147,3787.39393902,42.0,42.0,?
2017-06-01 17:27:52.584274,4538.99999955,8.2424242416,4224.24242382,0.0,3909.48484809,111.272727262,3913.0909087,321.454545422,4305.12121169,2781.81818154,4497.27272682,1895.75757557,4233.51515109,2868.36363608,4365.39393896,1355.87878774,5039.72727222,2996.12121182,4219.60606018,32.9696969664,4427.21212077,0.0,4226.30302988,12.3636363624,4843.96969649,0.0,4530.24242379,3787.39393902,42.0,42.0,?
2017-06-01 17:27:52.590403,4538.99999955,8.2424242416,4224.75757534,0.0,3907.93939355,111.272727262,3917.21212082,321.454545422,4307.69696927,2781.81818154,4502.42424197,1895.75757557,4242.27272685,2868.36363608,4375.18181774,1355.87878774,5041.78787828,2996.12121182,4235.06060564,32.9696969664,4430.81818138,0.0,4229.39393897,12.3636363624,4843.45454497,0.0,4536.42424197,3787.39393902,42.0,42.0,?
2017-06-01 17:27:52.598615,4537.454545,8.2424242416,4223.21212079,0.0,3904.84848446,111.272727262,3910.51515112,321.454545422,4306.66666624,2781.81818154,4507.57575713,1895.75757557,4233.51515109,2868.36363608,4371.06060562,1355.87878774,5025.3030298,2996.12121182,4242.27272685,32.9696969664,4426.69696925,0.0,4229.39393897,12.3636363624,4835.21212073,0.0,4537.96969652,3787.39393902,42.0,42.0,?
2017-06-01 17:27:52.605804,4538.99999955,8.2424242416,4223.21212079,0.0,3902.27272688,111.272727262,3903.30302991,321.454545422,4304.09090866,2781.81818154,4513.24242379,1895.75757557,4229.39393897,2868.36363608,4365.90909047,1355.87878774,5025.81818132,2996.12121182,4236.09090867,32.9696969664,4425.15151471,0.0,4228.36363594,12.3636363624,4839.33333285,0.0,4536.93939349,3787.39393902,42.0,42.0,?
2017-06-01 17:27:52.613341,4541.06060561,8.2424242416,4224.24242382,0.0,3905.87878749,111.272727262,3897.63636325,321.454545422,4303.06060563,2781.81818154,4515.30302985,1895.75757557,4242.27272685,2868.36363608,4366.9393935,1355.87878774,5033.54545404,2996.12121182,4237.1212117,32.9696969664,4426.18181774,0.0,4228.36363594,12.3636363624,4841.90909042,0.0,4536.42424197,3787.39393902,42.0,42.0,?
2017-06-01 17:27:52.622346,4539.51515106,8.2424242416,4223.21212079,0.0,3909.48484809,111.272727262,3891.96969658,321.454545422,4308.21212078,2781.81818154,4515.30302985,1895.75757557,4249.48484806,2868.36363608,4368.48484805,1355.87878774,5022.21212071,2996.12121182,4239.69696927,32.9696969664,4429.78787834,0.0,4226.30302988,12.3636363624,4839.84848436,0.0,4534.36363591,3787.39393902,42.0,42.0,?
2017-06-01 17:27:52.630001,4538.48484803,8.2424242416,4224.24242382,0.0,3905.36363597,111.272727262,3893.51515113,321.454545422,4311.30302987,2781.81818154,4515.30302985,1895.75757557,4243.81818139,2868.36363608,4363.3333329,1355.87878774,5009.84848435,2996.12121182,4222.69696927,32.9696969664,4428.75757531,0.0,4223.21212079,12.3636363624,4841.39393891,0.0,4526.12121167,3787.39393902,42.0,42.0,?
2017-06-01 17:27:52.637945,4535.39393894,8.2424242416,4223.7272723,0.0,3902.27272688,111.272727262,3899.69696931,321.454545422,4303.06060563,2781.81818154,4510.66666622,1895.75757557,4237.1212117,2868.36363608,4351.99999956,1355.87878774,5001.60606011,2996.12121182,4196.424242,32.9696969664,4423.09090865,0.0,4222.69696927,12.3636363624,4838.81818133,0.0,4515.81818137,3787.39393902,42.0,42.0,?
2017-06-01 17:27:52.646754,4536.93939349,8.2424242416,4223.21212079,0.0,3902.7878784,111.272727262,3900.72727234,321.454545422,4294.30302987,2781.81818154,4502.93939349,1895.75757557,4226.8181814,2868.36363608,4344.27272684,1355.87878774,4985.12121162,2996.12121182,4177.87878746,32.9696969664,4426.18181774,0.0,4225.27272685,12.3636363624,4840.87878739,0.0,4504.99999955,3787.39393902,42.0,42.0,?
2017-06-01 17:27:52.654082,4539.51515106,8.2424242416,4223.21212079,0.0,3901.75757537,111.272727262,3898.66666628,321.454545422,4291.7272723,2781.81818154,4495.72727228,1895.75757557,4218.06060564,2868.36363608,4346.84848441,1355.87878774,4984.60606011,2996.12121182,4174.78787837,32.9696969664,4428.2424238,0.0,4223.7272723,12.3636363624,4840.87878739,0.0,4500.87878743,3787.39393902,42.0,42.0,?
2017-06-01 17:27:52.662197,4536.93939349,8.2424242416,4222.18181776,0.0,3906.393939,111.272727262,3903.81818143,321.454545422,4292.75757533,2781.81818154,4495.72727228,1895.75757557,4215.99999958,2868.36363608,4347.87878744,1355.87878774,5005.21212071,2996.12121182,4188.69696928,32.9696969664,4427.72727228,0.0,4224.75757534,12.3636363624,4838.30302982,0.0,4512.21212076,3787.39393902,42.0,42.0,?
2017-06-01 17:27:52.668866,4538.99999955,8.2424242416,4221.66666624,0.0,3918.24242385,111.272727262,3911.54545415,321.454545422,4295.3333329,2781.81818154,4498.81818137,1895.75757557,4217.54545412,2868.36363608,4346.84848441,1355.87878774,5018.09090859,2996.12121182,4210.84848443,32.9696969664,4427.72727228,0.0,4229.39393897,12.3636363624,4840.36363588,0.0,4527.1515147,3787.39393902,42.0,42.0,?
2017-06-01 17:27:52.677409,4536.42424197,8.2424242416,4222.18181776,0.0,3921.33333294,111.272727262,3913.0909087,321.454545422,4296.36363593,2781.81818154,4495.21212076,1895.75757557,4223.7272723,2868.36363608,4355.09090866,1355.87878774,5021.69696919,2996.12121182,4226.30302988,32.9696969664,4426.18181774,0.0,4229.39393897,12.3636363624,4839.84848436,0.0,4531.27272682,3787.39393902,42.0,42.0,?
2017-06-01 17:27:52.685090,4535.90909046,8.2424242416,4224.24242382,0.0,3918.24242385,111.272727262,3906.393939,321.454545422,4292.24242381,2781.81818154,4488.51515107,1895.75757557,4230.424242,2868.36363608,4359.72727229,1355.87878774,5026.33333283,2996.12121182,4230.424242,32.9696969664,4429.78787834,0.0,4228.87878746,12.3636363624,4840.36363588,0.0,4537.454545,3787.39393902,42.0,42.0,?
2017-06-01 17:27:52.691933,4540.03030258,8.2424242416,4225.78787837,0.0,3916.18181779,111.272727262,3896.60606022,321.454545422,4287.60606018,2781.81818154,4484.90909046,1895.75757557,4232.99999958,2868.36363608,4360.75757532,1355.87878774,5026.84848435,2996.12121182,4229.90909049,32.9696969664,4429.78787834,0.0,4228.36363594,12.3636363624,4840.87878739,0.0,4547.7575753,3787.39393902,42.0,42.0,?
2017-06-01 17:27:52.700095,4537.96969652,8.2424242416,4224.24242382,0.0,3911.03030264,111.272727262,3892.4848481,321.454545422,4289.66666624,2781.81818154,4489.5454541,1895.75757557,4236.09090867,2868.36363608,4366.42424199,1355.87878774,5023.75757526,2996.12121182,4232.48484806,32.9696969664,4427.72727228,0.0,4224.75757534,12.3636363624,4841.39393891,0.0,4547.7575753,3787.39393902,42.0,42.0,?
2017-06-01 17:27:52.707463,4538.99999955,8.2424242416,4224.75757534,0.0,3901.24242385,111.272727262,3891.45454507,321.454545422,4291.21212078,2781.81818154,4489.5454541,1895.75757557,4240.21212079,2868.36363608,4364.36363593,1355.87878774,5021.69696919,2996.12121182,4228.87878746,32.9696969664,4429.27272683,0.0,4225.27272685,12.3636363624,4844.484848,0.0,4536.42424197,3787.39393902,42.0,42.0,?
2017-06-01 17:27:52.716588,4540.03030258,8.2424242416,4225.27272685,0.0,3894.03030264,111.272727262,3892.99999961,321.454545422,4291.7272723,2781.81818154,4479.24242379,1895.75757557,4237.63636321,2868.36363608,4358.69696926,1355.87878774,5018.09090859,2996.12121182,4210.84848443,32.9696969664,4428.75757531,0.0,4227.33333291,12.3636363624,4841.90909042,0.0,4523.54545409,3787.39393902,42.0,42.0,?
2017-06-01 17:27:52.724176,4538.99999955,8.2424242416,4225.27272685,0.0,3898.15151476,111.272727262,3895.57575719,321.454545422,4290.18181775,2781.81818154,4474.60606016,1895.75757557,4223.21212079,2868.36363608,4355.09090866,1355.87878774,4995.42424192,2996.12121182,4194.36363594,32.9696969664,4429.27272683,0.0,4226.30302988,12.3636363624,4843.45454497,0.0,4521.48484803,3787.39393902,42.0,42.0,?
2017-06-01 17:27:52.732623,4539.51515106,8.2424242416,4224.75757534,0.0,3908.96969658,111.272727262,3899.18181779,321.454545422,4289.66666624,2781.81818154,4474.60606016,1895.75757557,4209.30302988,2868.36363608,4344.78787835,1355.87878774,4967.60606011,2996.12121182,4189.21212079,32.9696969664,4427.21212077,0.0,4223.7272723,12.3636363624,4841.39393891,0.0,4529.72727227,3787.39393902,42.0,42.0,?
2017-06-01 17:27:52.739283,4536.93939349,8.2424242416,4222.18181776,0.0,3922.36363597,111.272727262,3905.87878749,321.454545422,4290.69696927,2781.81818154,4471.51515107,1895.75757557,4212.39393897,2868.36363608,4339.12121169,1355.87878774,4979.96969647,2996.12121182,4187.15151473,32.9696969664,4425.66666622,0.0,4223.7272723,12.3636363624,4835.72727224,0.0,4535.90909046,3787.39393902,42.0,42.0,?
2017-06-01 17:27:52.748085,4536.93939349,8.2424242416,4224.24242382,0.0,3927.51515112,111.272727262,3905.36363597,321.454545422,4283.48484806,2781.81818154,4465.33333289,1895.75757557,4215.48484806,2868.36363608,4342.72727229,1355.87878774,5006.24242374,2996.12121182,4188.18181776,32.9696969664,4428.2424238,0.0,4225.27272685,12.3636363624,4839.84848436,0.0,4530.24242379,3787.39393902,42.0,42.0,?
2017-06-01 17:27:52.754349,4537.96969652,8.2424242416,4226.30302988,0.0,3928.03030264,111.272727262,3901.24242385,321.454545422,4273.18181775,2781.81818154,4458.63636319,1895.75757557,4205.18181776,2868.36363608,4341.18181775,1355.87878774,5004.18181768,2996.12121182,4204.15151473,32.9696969664,4426.18181774,0.0,4226.30302988,12.3636363624,4837.7878783,0.0,4531.27272682,3787.39393902,42.0,42.0,?
2017-06-01 17:27:52.762754,4537.96969652,8.2424242416,4224.24242382,0.0,3943.48484809,111.272727262,3905.36363597,321.454545422,4275.75757533,2781.81818154,4456.06060561,1895.75757557,4202.09090867,2868.36363608,4339.6363632,1355.87878774,5003.66666617,2996.12121182,4238.15151473,32.9696969664,4427.21212077,0.0,4228.87878746,12.3636363624,4837.27272679,0.0,4549.81818136,3787.39393902,42.0,42.0,?
2017-06-01 17:27:52.770440,4540.03030258,8.2424242416,4222.69696927,0.0,3965.12121172,111.272727262,3905.36363597,321.454545422,4277.81818139,2781.81818154,4458.63636319,1895.75757557,4207.24242382,2868.36363608,4343.75757532,1355.87878774,5016.03030253,2996.12121182,4271.12121169,32.9696969664,4427.72727228,0.0,4230.93939352,12.3636363624,4840.36363588,0.0,4571.454545,3787.39393902,42.0,42.0,?
2017-06-01 17:27:52.779733,4534.87878743,8.2424242416,4222.18181776,0.0,3979.54545415,111.272727262,3900.21212082,321.454545422,4274.7272723,2781.81818154,4464.81818137,1895.75757557,4216.51515109,2868.36363608,4351.99999956,1355.87878774,5028.39393889,2996.12121182,4297.39393896,32.9696969664,4425.66666622,0.0,4230.93939352,12.3636363624,4839.33333285,0.0,4595.15151469,3787.39393902,42.0,42.0,?
2017-06-01 17:27:52.785885,4534.36363591,8.2424242416,4223.21212079,0.0,3990.36363596,111.272727262,3900.21212082,321.454545422,4281.93939351,2781.81818154,4474.60606016,1895.75757557,4234.54545412,2868.36363608,4364.87878744,1355.87878774,5040.24242374,2996.12121182,4321.60606017,32.9696969664,4427.72727228,0.0,4230.93939352,12.3636363624,4842.93939346,0.0,4627.09090863,3787.39393902,42.0,42.0,?
2017-06-01 17:27:52.793510,4539.51515106,8.2424242416,4222.69696927,0.0,3998.09090869,111.272727262,3898.66666628,321.454545422,4287.60606018,2781.81818154,4482.33333289,1895.75757557,4245.87878745,2868.36363608,4368.48484805,1355.87878774,5038.69696919,2996.12121182,4334.99999957,32.9696969664,4427.21212077,0.0,4231.45454503,12.3636363624,4842.93939346,0.0,4647.18181772,3787.39393902,42.0,42.0,?
2017-06-01 17:27:52.804054,4536.93939349,8.2424242416,4221.66666624,0.0,3990.87878748,111.272727262,3891.45454507,321.454545422,4279.87878745,2781.81818154,4474.60606016,1895.75757557,4236.60606018,2868.36363608,4359.72727229,1355.87878774,5023.24242374,2996.12121182,4324.69696926,32.9696969664,4428.2424238,0.0,4232.99999958,12.3636363624,4840.87878739,0.0,4643.57575711,3787.39393902,42.0,42.0,?
2017-06-01 17:27:52.809597,4536.42424197,8.2424242416,4222.18181776,0.0,3967.6969693,111.272727262,3883.72727234,321.454545422,4277.30302988,2781.81818154,4464.30302986,1895.75757557,4224.24242382,2868.36363608,4347.87878744,1355.87878774,5008.81818132,2996.12121182,4296.87878745,32.9696969664,4427.72727228,0.0,4230.424242,12.3636363624,4841.90909042,0.0,4629.15151469,3787.39393902,42.0,42.0,?
2017-06-01 17:27:52.818763,4536.93939349,8.2424242416,4223.21212079,0.0,3948.12121173,111.272727262,3878.57575719,321.454545422,4281.424242,2781.81818154,4469.45454501,1895.75757557,4222.18181776,2868.36363608,4337.06060563,1355.87878774,4987.6969692,2996.12121182,4274.21212078,32.9696969664,4423.60606016,0.0,4224.75757534,12.3636363624,4838.81818133,0.0,4614.21212075,3787.39393902,42.0,42.0,?
2017-06-01 17:27:52.827895,4538.48484803,8.2424242416,4224.75757534,0.0,3936.27272688,111.272727262,3877.03030264,321.454545422,4274.21212078,2781.81818154,4463.78787834,1895.75757557,4210.33333291,2868.36363608,4323.15151472,1355.87878774,4957.30302981,2996.12121182,4254.1212117,32.9696969664,4426.18181774,0.0,4226.8181814,12.3636363624,4839.33333285,0.0,4596.18181772,3787.39393902,42.0,42.0,?
2017-06-01 17:27:52.833621,4537.454545,8.2424242416,4223.7272723,0.0,3931.63636324,111.272727262,3880.63636325,321.454545422,4265.45454503,2781.81818154,4446.78787834,1895.75757557,4188.18181776,2868.36363608,4308.21212078,1355.87878774,4931.54545405,2996.12121182,4226.30302988,32.9696969664,4428.75757531,0.0,4228.87878746,12.3636363624,4839.33333285,0.0,4578.66666621,3787.39393902,42.0,42.0,?
2017-06-01 17:27:52.842156,4533.8484844,8.2424242416,4221.66666624,0.0,3940.393939,111.272727262,3887.33333294,321.454545422,4270.09090866,2781.81818154,4450.90909046,1895.75757557,4183.54545413,2868.36363608,4306.66666624,1355.87878774,4929.48484799,2996.12121182,4207.24242382,32.9696969664,4428.75757531,0.0,4224.24242382,12.3636363624,4840.36363588,0.0,4567.84848439,3787.39393902,42.0,42.0,?
2017-06-01 17:27:52.850088,4538.48484803,8.2424242416,4224.24242382,0.0,3950.6969693,111.272727262,3895.57575719,321.454545422,4274.21212078,2781.81818154,4461.21212077,1895.75757557,4192.30302988,2868.36363608,4319.0303026,1355.87878774,4954.72727223,2996.12121182,4201.57575716,32.9696969664,4429.78787834,0.0,4222.69696927,12.3636363624,4841.90909042,0.0,4560.12121167,3787.39393902,42.0,42.0,?
2017-06-01 17:27:52.858680,4540.03030258,8.2424242416,4224.75757534,0.0,3954.81818142,111.272727262,3900.72727234,321.454545422,4275.24242381,2781.81818154,4451.93939349,1895.75757557,4197.45454503,2868.36363608,4326.24242381,1355.87878774,4984.09090859,2996.12121182,4206.21212079,32.9696969664,4426.69696925,0.0,4224.75757534,12.3636363624,4838.81818133,0.0,4558.0606056,3787.39393902,42.0,42.0,?
2017-06-01 17:27:52.864471,4537.96969652,0.0,4223.21212079,0.0,3956.36363597,111.272727262,3901.75757537,321.454545422,4278.33333291,2781.81818154,4448.8484844,1895.75757557,4206.72727231,2868.36363608,4330.36363593,1355.87878774,4997.48484799,2996.12121182,4223.7272723,32.9696969664,4427.21212077,0.0,4227.84848443,12.3636363624,4840.87878739,0.0,4565.27272682,3787.39393902,42.0,42.0,?
2017-06-01 17:27:52.872289,4540.54545409,0.0,4224.75757534,4.1212121208,3958.42424203,111.272727262,3899.18181779,321.454545422,4278.33333291,2781.81818154,4461.72727228,1895.75757557,4219.60606018,2868.36363608,4342.21212078,1355.87878774,5004.6969692,2996.12121182,4237.63636321,32.9696969664,4428.75757531,0.0,4231.45454503,12.3636363624,4840.36363588,0.0,4572.48484803,3787.39393902,42.0,42.0,?
2017-06-01 17:27:52.880869,4541.57575712,0.0,4224.24242382,4.1212121208,3958.93939354,111.272727262,3897.63636325,321.454545422,4277.81818139,2781.81818154,4467.39393895,1895.75757557,4223.21212079,2868.36363608,4353.03030259,1355.87878774,5008.81818132,2996.12121182,4241.75757533,32.9696969664,4429.27272683,0.0,4229.39393897,12.3636363624,4840.87878739,0.0,4571.454545,3775.03030265,42.0,42.0,?
2017-06-01 17:27:52.888525,4542.60606015,0.0,4223.7272723,4.1212121208,3953.27272688,111.272727262,3899.18181779,321.454545422,4281.424242,2781.81818154,4464.81818137,1895.75757557,4226.8181814,2868.36363608,4354.57575714,1355.87878774,5008.3030298,2996.12121182,4243.81818139,32.9696969664,4428.2424238,0.0,4226.8181814,12.3636363624,4844.99999952,0.0,4567.84848439,3775.03030265,42.0,42.0,?
2017-06-01 17:27:52.900410,4541.57575712,0.0,4222.69696927,4.1212121208,3948.63636324,111.272727262,3904.84848446,313.212121181,4281.424242,2781.81818154,4467.39393895,1895.75757557,4233.51515109,2868.36363608,4356.12121169,1355.87878774,5023.75757526,2996.12121182,4251.54545412,32.9696969664,4425.15151471,0.0,4229.39393897,12.3636363624,4840.87878739,0.0,4571.96969651,3775.03030265,42.0,42.0,?
2017-06-01 17:27:52.905230,4539.51515106,0.0,4221.66666624,4.1212121208,3945.54545415,111.272727262,3906.90909052,313.212121181,4278.84848442,2777.69696942,4466.36363592,1895.75757557,4229.90909049,2868.36363608,4358.69696926,1355.87878774,5041.78787828,2996.12121182,4263.90909048,32.9696969664,4427.72727228,0.0,4232.99999958,12.3636363624,4843.96969649,0.0,4580.21212075,3775.03030265,42.0,42.0,?
2017-06-01 17:27:52.910906,4537.96969652,0.0,4223.7272723,4.1212121208,3933.6969693,111.272727262,3899.69696931,313.212121181,4281.424242,2777.69696942,4464.30302986,1903.99999981,4218.06060564,2868.36363608,4357.15151472,1355.87878774,5027.36363586,2996.12121182,4262.87878745,32.9696969664,4426.69696925,0.0,4228.36363594,12.3636363624,4847.06060558,0.0,4575.57575712,3775.03030265,42.0,42.0,?
2017-06-01 17:27:52.919205,4535.39393894,0.0,4223.7272723,4.1212121208,3909.99999961,111.272727262,3892.99999961,313.212121181,4282.96969654,2777.69696942,4464.81818137,1903.99999981,4211.87878746,2880.72727244,4354.57575714,1355.87878774,5005.72727223,2996.12121182,4232.99999958,32.9696969664,4425.66666622,0.0,4224.24242382,12.3636363624,4838.30302982,0.0,4546.72727227,3775.03030265,42.0,42.0,?
2017-06-01 17:27:52.927309,4539.51515106,0.0,4223.21212079,4.1212121208,3888.87878749,111.272727262,3892.99999961,313.212121181,4277.30302988,2777.69696942,4458.63636319,1903.99999981,4209.30302988,2880.72727244,4346.84848441,1364.12121198,4998.51515102,2996.12121182,4200.03030261,32.9696969664,4429.27272683,0.0,4226.30302988,12.3636363624,4837.7878783,0.0,4514.78787834,3775.03030265,42.0,42.0,?
2017-06-01 17:27:52.934449,4540.54545409,0.0,4222.18181776,4.1212121208,3886.81818143,111.272727262,3894.54545416,313.212121181,4273.69696927,2777.69696942,4449.87878743,1903.99999981,4209.8181814,2880.72727244,4339.6363632,1364.12121198,4990.27272677,2991.9999997,4195.90909049,32.9696969664,4428.2424238,0.0,4226.30302988,12.3636363624,4841.90909042,0.0,4509.12121167,3775.03030265,42.0,42.0,?
2017-06-01 17:27:52.946021,4537.96969652,0.0,4220.63636321,4.1212121208,3900.21212082,111.272727262,3891.96969658,313.212121181,4275.75757533,2777.69696942,4447.30302986,1903.99999981,4214.45454503,2880.72727244,4344.27272684,1364.12121198,4986.66666617,2991.9999997,4203.63636322,37.0909090872,4427.21212077,0.0,4224.75757534,12.3636363624,4842.93939346,0.0,4521.48484803,3775.03030265,42.0,42.0,?
2017-06-01 17:27:52.951169,4538.99999955,0.0,4222.69696927,4.1212121208,3899.18181779,111.272727262,3887.84848446,313.212121181,4277.30302988,2777.69696942,4455.03030258,1903.99999981,4220.1212117,2880.72727244,4346.84848441,1364.12121198,4989.75757526,2991.9999997,4200.03030261,37.0909090872,4426.18181774,0.0,4225.78787837,12.3636363624,4840.87878739,0.0,4516.8484844,3775.03030265,42.0,42.0,?
2017-06-01 17:27:52.959339,4536.42424197,0.0,4222.69696927,4.1212121208,3888.87878749,111.272727262,3890.93939355,313.212121181,4280.90909048,2777.69696942,4462.2424238,1903.99999981,4225.78787837,2880.72727244,4340.66666623,1364.12121198,4990.78787829,2991.9999997,4194.87878746,37.0909090872,4425.15151471,0.0,4228.87878746,8.2424242416,4839.33333285,0.0,4500.87878743,3775.03030265,42.0,42.0,?
2017-06-01 17:27:52.965908,4537.96969652,0.0,4220.63636321,4.1212121208,3898.15151476,111.272727262,3898.15151476,313.212121181,4287.60606018,2777.69696942,4463.27272683,1903.99999981,4227.84848443,2880.72727244,4341.69696926,1364.12121198,5001.09090859,2991.9999997,4202.09090867,37.0909090872,4428.2424238,0.0,4231.96969655,8.2424242416,4842.93939346,0.0,4502.42424197,3775.03030265,42.0,42.0,?
2017-06-01 17:27:52.973607,4537.96969652,0.0,4221.15151473,4.1212121208,3914.12121173,111.272727262,3898.66666628,313.212121181,4288.12121169,2777.69696942,4464.30302986,1903.99999981,4223.21212079,2880.72727244,4348.39393896,1364.12121198,5010.36363586,2991.9999997,4215.99999958,41.212121208,4425.66666622,0.0,4229.90909049,8.2424242416,4839.84848436,0.0,4513.24242379,3775.03030265,42.0,42.0,?
2017-06-01 17:27:52.981906,4536.42424197,0.0,4224.24242382,4.1212121208,3917.21212082,111.272727262,3896.0909087,313.212121181,4281.93939351,2777.69696942,4464.81818137,1903.99999981,4213.424242,2880.72727244,4346.84848441,1364.12121198,5001.09090859,2991.9999997,4221.66666624,41.212121208,4427.21212077,12.3636363624,4227.84848443,8.2424242416,4838.81818133,0.0,4521.48484803,3775.03030265,42.0,42.0,?
2017-06-01 17:27:52.989689,4540.54545409,0.0,4226.8181814,4.1212121208,3925.45454506,111.272727262,3898.15151476,313.212121181,4276.27272685,2777.69696942,4461.72727228,1903.99999981,4208.78787837,2880.72727244,4342.72727229,1364.12121198,5006.75757526,2991.9999997,4221.15151473,41.212121208,4429.78787834,12.3636363624,4229.39393897,4.1212121208,4841.39393891,0.0,4536.42424197,3775.03030265,42.0,42.0,?
2017-06-01 17:27:52.998599,4537.96969652,0.0,4224.24242382,4.1212121208,3942.96969658,111.272727262,3903.30302991,313.212121181,4280.90909048,2777.69696942,4472.03030258,1903.99999981,4221.15151473,2880.72727244,4349.42424199,1364.12121198,5033.03030253,2991.9999997,4226.8181814,41.212121208,4427.21212077,12.3636363624,4230.424242,4.1212121208,4839.84848436,0.0,4557.03030257,3775.03030265,42.0,42.0,?
2017-06-01 17:27:53.007553,4536.93939349,0.0,4223.7272723,4.1212121208,3946.57575718,111.272727262,3903.81818143,313.212121181,4292.24242381,2777.69696942,4492.12121167,1903.99999981,4238.66666624,2880.72727244,4366.42424199,1364.12121198,5038.69696919,2991.9999997,4231.96969655,41.212121208,4427.72727228,12.3636363624,4229.90909049,4.1212121208,4842.93939346,0.0,4564.7575753,3775.03030265,42.0,42.0,?
2017-06-01 17:27:53.012527,4543.12121167,0.0,4225.27272685,4.1212121208,3931.12121173,111.272727262,3896.0909087,313.212121181,4297.39393896,2777.69696942,4485.93939349,1903.99999981,4240.7272723,2880.72727244,4374.66666623,1364.12121198,5024.27272677,2991.9999997,4221.66666624,41.212121208,4426.69696925,12.3636363624,4226.30302988,4.1212121208,4841.39393891,0.0,4549.81818136,3775.03030265,42.0,42.0,?
2017-06-01 17:27:53.021263,4542.09090864,0.0,4222.69696927,4.1212121208,3900.72727234,111.272727262,3886.81818143,313.212121181,4288.63636321,2777.69696942,4464.81818137,1903.99999981,4231.45454503,2880.72727244,4362.81818138,1364.12121198,5007.27272677,2991.9999997,4197.96969655,41.212121208,4426.69696925,12.3636363624,4224.24242382,4.1212121208,4840.87878739,0.0,4516.33333288,3775.03030265,42.0,42.0,?
2017-06-01 17:27:53.029390,4538.48484803,0.0,4224.24242382,4.1212121208,3869.30302992,111.272727262,3876.51515113,313.212121181,4277.30302988,2777.69696942,4461.21212077,1903.99999981,4223.7272723,2880.72727244,4345.81818138,1364.12121198,4988.21212071,2991.9999997,4171.69696928,41.212121208,4429.78787834,12.3636363624,4224.75757534,4.1212121208,4843.45454497,0.0,4482.8484844,3775.03030265,42.0,42.0,?
2017-06-01 17:27:53.036463,4537.454545,0.0,4224.75757534,4.1212121208,3859.51515113,111.272727262,3874.45454507,313.212121181,4278.33333291,2777.69696942,4467.39393895,1903.99999981,4221.66666624,2880.72727244,4343.75757532,1364.12121198,4983.57575708,2991.9999997,4162.93939352,41.212121208,4428.75757531,12.3636363624,4226.30302988,4.1212121208,4838.81818133,0.0,4473.57575713,3775.03030265,42.0,42.0,?
2017-06-01 17:27:53.045692,4539.51515106,0.0,4222.18181776,4.1212121208,3866.72727234,111.272727262,3880.63636325,313.212121181,4285.0303026,2777.69696942,4465.33333289,1903.99999981,4222.18181776,2880.72727244,4348.39393896,1364.12121198,4990.27272677,2991.9999997,4170.66666625,41.212121208,4429.27272683,12.3636363624,4228.36363594,4.1212121208,4841.90909042,0.0,4483.36363592,3775.03030265,42.0,42.0,?
2017-06-01 17:27:53.052144,4538.48484803,0.0,4221.66666624,4.1212121208,3870.33333295,111.272727262,3884.24242385,313.212121181,4281.424242,2777.69696942,4455.03030258,1903.99999981,4219.09090867,2880.72727244,4347.87878744,1364.12121198,4987.6969692,2991.9999997,4167.57575716,41.212121208,4427.72727228,12.3636363624,4226.30302988,4.1212121208,4843.96969649,0.0,4485.93939349,3775.03030265,42.0,42.0,?
2017-06-01 17:27:53.061335,4536.93939349,0.0,4223.21212079,4.1212121208,3869.81818143,111.272727262,3884.24242385,313.212121181,4276.27272685,2777.69696942,4449.36363592,1903.99999981,4212.90909049,2880.72727244,4340.66666623,1364.12121198,4982.03030253,2991.9999997,4155.2121208,41.212121208,4428.75757531,12.3636363624,4223.21212079,4.1212121208,4840.36363588,0.0,4479.24242379,3775.03030265,42.0,42.0,?
2017-06-01 17:27:53.069924,4541.57575712,0.0,4224.24242382,4.1212121208,3872.39393901,111.272727262,3885.27272688,313.212121181,4278.33333291,2777.69696942,4461.21212077,1903.99999981,4208.78787837,2880.72727244,4334.48484805,1364.12121198,4983.57575708,2991.9999997,4160.87878746,41.212121208,4430.30302986,12.3636363624,4225.78787837,4.1212121208,4841.39393891,0.0,4475.63636319,3775.03030265,42.0,42.0,?
2017-06-01 17:27:53.077956,4539.51515106,0.0,4224.75757534,4.1212121208,3877.03030264,111.272727262,3889.393939,313.212121181,4279.87878745,2777.69696942,4478.72727228,1903.99999981,4209.30302988,2880.72727244,4336.54545411,1364.12121198,4988.72727223,2991.9999997,4181.99999958,41.212121208,4424.63636319,12.3636363624,4226.8181814,4.1212121208,4838.81818133,0.0,4481.81818137,3775.03030265,42.0,42.0,?
2017-06-01 17:27:53.082890,4534.87878743,0.0,4226.8181814,4.1212121208,3884.75757537,111.272727262,3891.45454507,313.212121181,4279.87878745,2777.69696942,4486.45454501,1903.99999981,4208.78787837,2880.72727244,4338.09090866,1364.12121198,4987.6969692,2991.9999997,4185.09090867,41.212121208,4425.66666622,12.3636363624,4223.7272723,4.1212121208,4839.84848436,0.0,4485.93939349,3775.03030265,42.0,42.0,?
2017-06-01 17:27:53.090526,4537.454545,0.0,4226.8181814,4.1212121208,3894.54545416,111.272727262,3890.93939355,313.212121181,4283.48484806,2777.69696942,4494.69696925,1903.99999981,4206.72727231,2880.72727244,4337.06060563,1364.12121198,4986.15151465,2991.9999997,4170.66666625,41.212121208,4428.75757531,12.3636363624,4223.21212079,4.1212121208,4842.42424194,0.0,4487.48484804,3775.03030265,42.0,42.0,?
2017-06-01 17:27:53.100049,4535.90909046,0.0,4223.7272723,4.1212121208,3906.90909052,111.272727262,3897.63636325,313.212121181,4287.60606018,2777.69696942,4500.87878743,1903.99999981,4211.87878746,2880.72727244,4346.84848441,1364.12121198,4994.90909041,2991.9999997,4170.66666625,41.212121208,4426.18181774,12.3636363624,4224.75757534,4.1212121208,4840.36363588,0.0,4500.87878743,3775.03030265,42.0,42.0,?
2017-06-01 17:27:53.110883,4536.42424197,0.0,4225.27272685,4.1212121208,3916.18181779,111.272727262,3904.33333294,313.212121181,4291.21212078,2777.69696942,4496.24242379,1903.99999981,4222.18181776,2880.72727244,4357.66666623,1364.12121198,5002.12121162,2991.9999997,4184.57575716,41.212121208,4425.15151471,12.3636363624,4226.8181814,4.1212121208,4840.87878739,0.0,4512.72727228,3775.03030265,42.0,42.0,?
2017-06-01 17:27:53.116033,4540.54545409,0.0,4225.27272685,4.1212121208,3915.15151476,111.272727262,3901.24242385,313.212121181,4291.21212078,2777.69696942,4492.63636319,1903.99999981,4227.84848443,2880.72727244,4355.60606017,1364.12121198,5002.63636314,2991.9999997,4197.96969655,41.212121208,4426.18181774,12.3636363624,4228.36363594,4.1212121208,4839.33333285,0.0,4514.78787834,3775.03030265,42.0,42.0,?
2017-06-01 17:27:53.125348,4541.57575712,0.0,4221.66666624,4.1212121208,3914.12121173,111.272727262,3899.69696931,313.212121181,4290.69696927,2777.69696942,4498.30302985,1903.99999981,4226.8181814,2880.72727244,4355.09090866,1364.12121198,5014.48484798,2991.9999997,4203.63636322,41.212121208,4429.78787834,12.3636363624,4227.33333291,4.1212121208,4838.81818133,0.0,4520.454545,3775.03030265,42.0,42.0,?
2017-06-01 17:27:53.132839,4540.54545409,0.0,4221.15151473,4.1212121208,3914.63636324,111.272727262,3901.75757537,313.212121181,4291.21212078,2777.69696942,4500.36363591,1903.99999981,4225.78787837,2880.72727244,4356.6363632,1364.12121198,5019.63636313,2991.9999997,4198.99999958,41.212121208,4428.75757531,12.3636363624,4223.21212079,4.1212121208,4840.36363588,0.0,4521.48484803,3775.03030265,42.0,42.0,?
2017-06-01 17:27:53.139104,4536.93939349,0.0,4221.15151473,4.1212121208,3909.48484809,111.272727262,3900.72727234,313.212121181,4290.18181775,2777.69696942,4489.03030258,1903.99999981,4229.90909049,2880.72727244,4351.48484805,1364.12121198,5007.27272677,2991.9999997,4194.87878746,41.212121208,4426.69696925,12.3636363624,4224.75757534,4.1212121208,4840.36363588,0.0,4509.63636319,3775.03030265,42.0,42.0,?
2017-06-01 17:27:53.147082,4537.454545,0.0,4222.69696927,4.1212121208,3904.33333294,111.272727262,3900.72727234,313.212121181,4286.06060563,2777.69696942,4482.33333289,1903.99999981,4235.57575715,2880.72727244,4351.99999956,1364.12121198,5009.33333283,2991.9999997,4194.87878746,41.212121208,4430.81818138,12.3636363624,4230.424242,4.1212121208,4844.99999952,0.0,4503.96969652,3775.03030265,42.0,42.0,?
2017-06-01 17:27:53.153485,4538.48484803,0.0,4224.24242382,4.1212121208,3902.7878784,111.272727262,3901.75757537,313.212121181,4288.63636321,2777.69696942,4490.06060561,1903.99999981,4232.48484806,2880.72727244,4359.21212078,1364.12121198,5012.93939344,2991.9999997,4191.78787837,41.212121208,4429.27272683,12.3636363624,4226.30302988,4.1212121208,4844.99999952,0.0,4503.454545,3775.03030265,42.0,42.0,?
2017-06-01 17:27:53.161464,4538.99999955,0.0,4223.21212079,4.1212121208,3894.54545416,111.272727262,3901.75757537,313.212121181,4293.78787836,2777.69696942,4495.21212076,1903.99999981,4220.1212117,2880.72727244,4355.09090866,1364.12121198,4997.48484799,2991.9999997,4188.18181776,41.212121208,4428.75757531,12.3636363624,4222.18181776,4.1212121208,4841.90909042,0.0,4492.63636319,3775.03030265,42.0,42.0,?
2017-06-01 17:27:53.171523,4540.54545409,0.0,4223.21212079,4.1212121208,3883.21212082,111.272727262,3901.24242385,313.212121181,4290.69696927,2777.69696942,4487.48484804,1903.99999981,4208.78787837,2880.72727244,4340.15151472,1364.12121198,4980.48484799,2991.9999997,4179.42424201,41.212121208,4430.30302986,12.3636363624,4224.24242382,4.1212121208,4841.39393891,0.0,4478.21212076,3775.03030265,42.0,42.0,?
2017-06-01 17:27:53.177387,4537.454545,0.0,4223.7272723,4.1212121208,3888.87878749,111.272727262,3901.24242385,313.212121181,4287.09090866,2777.69696942,4478.72727228,1903.99999981,4207.24242382,2880.72727244,4334.48484805,1364.12121198,4980.9999995,2991.9999997,4173.75757534,41.212121208,4427.72727228,12.3636363624,4225.78787837,4.1212121208,4840.36363588,0.0,4475.12121167,3775.03030265,42.0,42.0,?
2017-06-01 17:27:53.184435,4540.54545409,0.0,4223.7272723,4.1212121208,3900.72727234,111.272727262,3900.72727234,313.212121181,4289.15151472,2777.69696942,4483.36363592,1903.99999981,4214.96969655,2880.72727244,4343.75757532,1364.12121198,4998.51515102,2991.9999997,4187.15151473,41.212121208,4430.30302986,12.3636363624,4224.75757534,4.1212121208,4842.93939346,0.0,4483.36363592,3775.03030265,42.0,42.0,?
2017-06-01 17:27:53.197476,4544.1515147,0.0,4223.21212079,4.1212121208,3903.30302991,111.272727262,3900.21212082,313.212121181,4291.21212078,2777.69696942,4493.66666622,1903.99999981,4223.21212079,2880.72727244,4351.48484805,1364.12121198,5013.96969647,2991.9999997,4200.03030261,41.212121208,4431.84848441,12.3636363624,4224.75757534,4.1212121208,4841.90909042,0.0,4490.06060561,3775.03030265,42.0,42.0,?
2017-06-01 17:27:53.201276,4540.54545409,0.0,4220.63636321,4.1212121208,3905.36363597,111.272727262,3900.72727234,313.212121181,4293.78787836,2777.69696942,4496.24242379,1903.99999981,4225.27272685,2880.72727244,4349.9393935,1364.12121198,5010.36363586,2991.9999997,4192.8181814,41.212121208,4431.33333289,12.3636363624,4225.78787837,4.1212121208,4842.93939346,0.0,4487.99999955,3775.03030265,42.0,42.0,?
2017-06-01 17:27:53.211624,4540.54545409,0.0,4223.21212079,4.1212121208,3912.06060567,111.272727262,3903.30302991,313.212121181,4294.30302987,2777.69696942,4492.12121167,1903.99999981,4223.21212079,2880.72727244,4348.39393896,1364.12121198,4999.54545405,2991.9999997,4184.57575716,41.212121208,4428.75757531,12.3636363624,4224.24242382,4.1212121208,4842.42424194,0.0,4487.48484804,3775.03030265,42.0,42.0,?
2017-06-01 17:27:53.215932,4538.99999955,0.0,4222.69696927,4.1212121208,3919.27272688,111.272727262,3908.45454506,313.212121181,4293.27272684,2777.69696942,4487.99999955,1903.99999981,4222.69696927,2880.72727244,4352.51515108,1364.12121198,5007.27272677,2991.9999997,4190.24242382,41.212121208,4425.66666622,12.3636363624,4225.27272685,4.1212121208,4836.75757527,0.0,4501.39393894,3775.03030265,42.0,42.0,?
2017-06-01 17:27:53.224543,4538.99999955,0.0,4221.66666624,4.1212121208,3929.57575718,111.272727262,3907.93939355,313.212121181,4293.78787836,2777.69696942,4479.75757531,1903.99999981,4228.36363594,2880.72727244,4360.24242381,1364.12121198,5022.21212071,2991.9999997,4204.15151473,41.212121208,4428.2424238,12.3636363624,4227.84848443,4.1212121208,4840.87878739,0.0,4521.99999955,3775.03030265,42.0,42.0,?
2017-06-01 17:27:53.232288,4540.54545409,0.0,4223.7272723,4.1212121208,3936.27272688,111.272727262,3905.87878749,313.212121181,4293.27272684,2777.69696942,4474.09090864,1903.99999981,4238.66666624,2880.72727244,4365.39393896,1364.12121198,5030.45454495,2991.9999997,4217.54545412,41.212121208,4425.66666622,12.3636363624,4226.30302988,4.1212121208,4841.90909042,0.0,4535.90909046,3775.03030265,42.0,42.0,?
2017-06-01 17:27:53.239843,4535.90909046,0.0,4222.69696927,4.1212121208,3930.60606021,111.272727262,3907.42424203,313.212121181,4293.78787836,2777.69696942,4480.27272682,1903.99999981,4246.39393897,2880.72727244,4369.51515108,1364.12121198,5034.57575707,2991.9999997,4225.78787837,41.212121208,4424.63636319,12.3636363624,4225.78787837,4.1212121208,4837.7878783,0.0,4534.87878743,3775.03030265,42.0,42.0,?
2017-06-01 17:27:53.247651,4537.454545,0.0,4222.18181776,4.1212121208,3919.27272688,111.272727262,3904.33333294,313.212121181,4298.93939351,2777.69696942,4483.87878743,1903.99999981,4250.51515109,2880.72727244,4371.06060562,1364.12121198,5027.87878738,2991.9999997,4226.8181814,41.212121208,4428.2424238,12.3636363624,4226.8181814,4.1212121208,4840.36363588,0.0,4523.03030258,3775.03030265,42.0,42.0,?
2017-06-01 17:27:53.257227,4539.51515106,0.0,4223.21212079,4.1212121208,3914.12121173,111.272727262,3899.69696931,313.212121181,4306.66666624,2777.69696942,4481.81818137,1903.99999981,4251.54545412,2880.72727244,4373.12121168,1364.12121198,5021.18181768,2991.9999997,4219.09090867,41.212121208,4425.15151471,12.3636363624,4224.75757534,4.1212121208,4840.36363588,0.0,4518.39393894,3775.03030265,42.0,42.0,?
2017-06-01 17:27:53.262790,4536.93939349,0.0,4221.66666624,4.1212121208,3910.51515112,111.272727262,3905.87878749,313.212121181,4309.75757533,2777.69696942,4479.24242379,1903.99999981,4242.27272685,2880.72727244,4372.60606017,1364.12121198,5023.75757526,2991.9999997,4207.75757534,41.212121208,4427.72727228,12.3636363624,4224.75757534,4.1212121208,4841.39393891,0.0,4517.87878743,3775.03030265,42.0,42.0,?
2017-06-01 17:27:53.270533,4537.96969652,0.0,4219.60606018,4.1212121208,3903.30302991,111.272727262,3910.51515112,313.212121181,4304.09090866,2777.69696942,4470.48484804,1903.99999981,4224.24242382,2880.72727244,4357.15151472,1364.12121198,5017.57575707,2991.9999997,4194.87878746,41.212121208,4429.27272683,12.3636363624,4224.75757534,4.1212121208,4841.90909042,0.0,4500.87878743,3775.03030265,42.0,42.0,?
2017-06-01 17:27:53.279346,4538.99999955,0.0,4220.63636321,4.1212121208,3904.33333294,111.272727262,3902.7878784,313.212121181,4296.87878745,2777.69696942,4464.81818137,1903.99999981,4214.96969655,2880.72727244,4342.21212078,1364.12121198,4995.93939344,2991.9999997,4185.60606019,41.212121208,4428.2424238,12.3636363624,4222.69696927,4.1212121208,4841.90909042,0.0,4482.33333289,3775.03030265,42.0,42.0,?
2017-06-01 17:27:53.286794,4541.06060561,0.0,4225.27272685,4.1212121208,3911.03030264,111.272727262,3901.75757537,313.212121181,4292.24242381,2777.69696942,4465.8484844,1903.99999981,4216.51515109,2880.72727244,4340.66666623,1364.12121198,4976.87878738,2991.9999997,4180.45454504,41.212121208,4429.27272683,12.3636363624,4223.7272723,4.1212121208,4844.484848,0.0,4482.33333289,3775.03030265,42.0,42.0,?
2017-06-01 17:27:53.297820,4540.03030258,0.0,4223.7272723,4.1212121208,3913.0909087,111.272727262,3911.03030264,313.212121181,4289.15151472,2777.69696942,4457.09090865,1903.99999981,4217.03030261,2880.72727244,4344.27272684,1364.12121198,4978.42424193,2991.9999997,4177.36363595,41.212121208,4426.18181774,12.3636363624,4224.75757534,4.1212121208,4838.81818133,0.0,4493.66666622,3775.03030265,42.0,42.0,?
2017-06-01 17:27:53.303521,4537.454545,0.0,4222.69696927,4.1212121208,3919.7878784,111.272727262,3908.45454506,313.212121181,4285.54545412,2777.69696942,4448.8484844,1903.99999981,4220.1212117,2880.72727244,4344.27272684,1364.12121198,4985.12121162,2991.9999997,4181.99999958,41.212121208,4425.15151471,12.3636363624,4223.21212079,4.1212121208,4839.33333285,0.0,4506.54545409,3775.03030265,42.0,42.0,?
2017-06-01 17:27:53.310433,4538.48484803,0.0,4225.27272685,4.1212121208,3928.54545415,111.272727262,3897.63636325,313.212121181,4288.63636321,2777.69696942,4458.63636319,1903.99999981,4225.78787837,2880.72727244,4347.36363593,1364.12121198,4995.42424192,2991.9999997,4199.5151511,41.212121208,4426.18181774,12.3636363624,4223.21212079,4.1212121208,4844.484848,0.0,4517.36363591,3775.03030265,42.0,42.0,?
2017-06-01 17:27:53.317399,4534.87878743,0.0,4224.24242382,4.1212121208,3932.66666627,111.272727262,3899.69696931,313.212121181,4296.87878745,2777.69696942,4465.8484844,1903.99999981,4232.48484806,2880.72727244,4363.84848441,1364.12121198,5021.69696919,2991.9999997,4224.75757534,41.212121208,4427.72727228,12.3636363624,4228.36363594,4.1212121208,4840.36363588,0.0,4526.63636318,3775.03030265,42.0,42.0,?
2017-06-01 17:27:53.327293,4536.93939349,0.0,4223.7272723,4.1212121208,3925.45454506,111.272727262,3905.87878749,313.212121181,4297.90909048,2777.69696942,4464.30302986,1903.99999981,4238.66666624,2880.72727244,4376.72727229,1364.12121198,5036.12121162,2991.9999997,4236.60606018,41.212121208,4429.78787834,12.3636363624,4230.424242,4.1212121208,4840.87878739,0.0,4528.18181773,3775.03030265,42.0,42.0,?
2017-06-01 17:27:53.334195,4542.09090864,0.0,4225.27272685,4.1212121208,3914.12121173,111.272727262,3906.90909052,313.212121181,4299.96969654,2777.69696942,4465.8484844,1903.99999981,4241.75757533,2880.72727244,4372.60606017,1364.12121198,5033.03030253,2991.9999997,4231.45454503,41.212121208,4427.21212077,12.3636363624,4224.75757534,4.1212121208,4842.93939346,0.0,4514.78787834,3775.03030265,42.0,42.0,?
2017-06-01 17:27:53.341489,4541.06060561,0.0,4224.75757534,4.1212121208,3910.51515112,111.272727262,3905.87878749,313.212121181,4304.09090866,2777.69696942,4466.36363592,1903.99999981,4241.75757533,2880.72727244,4364.36363593,1364.12121198,5039.21212071,2991.9999997,4220.63636321,41.212121208,4428.75757531,12.3636363624,4223.7272723,4.1212121208,4843.45454497,0.0,4500.36363591,3775.03030265,42.0,42.0,?
2017-06-01 17:27:53.349452,4541.06060561,0.0,4223.7272723,4.1212121208,3910.51515112,111.272727262,3903.81818143,313.212121181,4305.63636321,2777.69696942,4470.48484804,1903.99999981,4240.21212079,2880.72727244,4366.9393935,1364.12121198,5038.18181768,2991.9999997,4207.75757534,41.212121208,4430.30302986,12.3636363624,4224.24242382,4.1212121208,4841.90909042,0.0,4496.75757531,3775.03030265,42.0,42.0,?
2017-06-01 17:27:53.357200,4541.06060561,0.0,4223.7272723,4.1212121208,3904.84848446,111.272727262,3903.81818143,313.212121181,4303.57575715,2777.69696942,4477.18181773,1903.99999981,4239.18181776,2880.72727244,4367.45454502,1364.12121198,5012.42424192,2991.9999997,4202.60606019,41.212121208,4428.2424238,12.3636363624,4222.69696927,4.1212121208,4838.81818133,0.0,4500.87878743,3775.03030265,42.0,42.0,?
2017-06-01 17:27:53.366989,4542.09090864,0.0,4225.27272685,4.1212121208,3897.12121173,111.272727262,3902.27272688,313.212121181,4300.48484805,2777.69696942,4472.03030258,1903.99999981,4235.57575715,2880.72727244,4359.21212078,1364.12121198,4997.48484799,2991.9999997,4204.66666625,41.212121208,4429.27272683,12.3636363624,4224.24242382,4.1212121208,4842.93939346,0.0,4500.87878743,3775.03030265,42.0,42.0,?
2017-06-01 17:27:53.373490,4541.06060561,0.0,4224.24242382,4.1212121208,3895.57575719,111.272727262,3901.75757537,313.212121181,4299.45454502,2777.69696942,4465.33333289,1903.99999981,4230.424242,2880.72727244,4354.06060563,1364.12121198,5001.09090859,2991.9999997,4197.96969655,41.212121208,4427.72727228,12.3636363624,4224.75757534,4.1212121208,4842.93939346,0.0,4492.63636319,3775.03030265,42.0,42.0,?
2017-06-01 17:27:53.382154,4536.42424197,0.0,4222.18181776,4.1212121208,3904.33333294,111.272727262,3907.93939355,313.212121181,4302.0303026,2777.69696942,4467.90909046,1903.99999981,4230.424242,2880.72727244,4360.24242381,1364.12121198,5001.60606011,2991.9999997,4188.18181776,41.212121208,4427.21212077,12.3636363624,4222.69696927,4.1212121208,4840.87878739,0.0,4491.60606016,3775.03030265,42.0,42.0,?
2017-06-01 17:27:53.387791,4538.48484803,0.0,4223.21212079,4.1212121208,3922.36363597,111.272727262,3909.48484809,313.212121181,4300.99999957,2777.69696942,4463.78787834,1903.99999981,4227.84848443,2880.72727244,4364.87878744,1364.12121198,5009.33333283,2991.9999997,4194.36363594,41.212121208,4428.2424238,12.3636363624,4223.7272723,4.1212121208,4843.45454497,0.0,4501.39393894,3779.15151477,42.0,42.0,?
2017-06-01 17:27:53.397717,4541.57575712,0.0,4223.21212079,4.1212121208,3935.24242385,107.151515141,3907.42424203,313.212121181,4293.27272684,2777.69696942,4456.06060561,1903.99999981,4221.66666624,2880.72727244,4363.84848441,1364.12121198,5023.75757526,2991.9999997,4211.36363594,41.212121208,4425.66666622,12.3636363624,4227.33333291,4.1212121208,4841.39393891,0.0,4507.57575713,3779.15151477,42.0,42.0,?
2017-06-01 17:27:53.403650,4541.57575712,0.0,4221.66666624,4.1212121208,3929.57575718,107.151515141,3906.90909052,321.454545422,4295.3333329,2777.69696942,4462.2424238,1903.99999981,4222.18181776,2880.72727244,4365.39393896,1364.12121198,5024.27272677,2991.9999997,4220.1212117,41.212121208,4427.72727228,12.3636363624,4226.8181814,4.1212121208,4840.87878739,0.0,4499.8484844,3779.15151477,42.0,42.0,?
2017-06-01 17:27:53.413477,4539.51515106,0.0,4223.21212079,4.1212121208,3923.90909052,107.151515141,3901.24242385,321.454545422,4306.15151472,2781.81818154,4468.93939349,1903.99999981,4234.03030261,2880.72727244,4371.06060562,1364.12121198,5020.66666616,2991.9999997,4221.15151473,41.212121208,4425.66666622,12.3636363624,4225.78787837,4.1212121208,4841.39393891,0.0,4501.90909046,3779.15151477,42.0,42.0,?
2017-06-01 17:27:53.425791,4536.42424197,0.0,4223.21212079,4.1212121208,3937.81818142,107.151515141,3902.27272688,321.454545422,4306.66666624,2781.81818154,4466.87878743,1908.12121193,4244.84848442,2880.72727244,4376.21212077,1364.12121198,5033.03030253,2991.9999997,4221.66666624,41.212121208,4422.06060562,12.3636363624,4225.27272685,4.1212121208,4841.90909042,0.0,4525.60606015,3779.15151477,42.0,42.0,?
2017-06-01 17:27:53.430308,4539.51515106,0.0,4222.69696927,4.1212121208,3944.51515112,107.151515141,3914.12121173,321.454545422,4299.45454502,2781.81818154,4464.30302986,1908.12121193,4247.93939351,2876.60606032,4377.75757532,1364.12121198,5044.87878737,2991.9999997,4223.21212079,41.212121208,4423.09090865,12.3636363624,4227.33333291,4.1212121208,4842.93939346,0.0,4547.24242379,3779.15151477,42.0,42.0,?
2017-06-01 17:27:53.435870,4538.48484803,0.0,4223.21212079,4.1212121208,3935.75757536,107.151515141,3915.15151476,321.454545422,4295.84848442,2781.81818154,4461.21212077,1908.12121193,4248.96969654,2876.60606032,4377.2424238,1351.75757562,5035.09090859,2991.9999997,4223.7272723,41.212121208,4422.57575713,12.3636363624,4227.33333291,4.1212121208,4839.84848436,0.0,4553.93939348,3779.15151477,42.0,42.0,?
2017-06-01 17:27:53.442736,4535.90909046,0.0,4225.27272685,4.1212121208,3929.06060567,107.151515141,3911.54545415,321.454545422,4294.81818139,2781.81818154,4458.63636319,1908.12121193,4245.36363594,2876.60606032,4368.48484805,1351.75757562,5015.51515101,2996.12121182,4215.48484806,41.212121208,4424.63636319,12.3636363624,4225.27272685,4.1212121208,4840.36363588,0.0,4541.57575712,3779.15151477,42.0,42.0,?
2017-06-01 17:27:53.451420,4538.48484803,0.0,4225.78787837,4.1212121208,3909.99999961,107.151515141,3912.06060567,321.454545422,4296.87878745,2781.81818154,4463.27272683,1908.12121193,4234.54545412,2876.60606032,4353.54545411,1351.75757562,5000.57575708,2996.12121182,4197.45454503,32.9696969664,4424.63636319,12.3636363624,4222.69696927,4.1212121208,4839.84848436,0.0,4512.72727228,3779.15151477,42.0,42.0,?
2017-06-01 17:27:53.460764,4536.42424197,0.0,4223.7272723,4.1212121208,3884.75757537,107.151515141,3910.51515112,321.454545422,4303.06060563,2781.81818154,4469.45454501,1908.12121193,4226.30302988,2876.60606032,4349.42424199,1351.75757562,4995.93939344,2996.12121182,4183.54545413,32.9696969664,4425.66666622,0.0,4223.21212079,4.1212121208,4838.30302982,0.0,4486.45454501,3779.15151477,42.0,42.0,?
2017-06-01 17:27:53.467540,4538.99999955,0.0,4224.75757534,4.1212121208,3884.24242385,107.151515141,3907.42424203,321.454545422,4301.51515109,2781.81818154,4466.87878743,1908.12121193,4224.75757534,2876.60606032,4355.60606017,1351.75757562,5001.60606011,2996.12121182,4189.21212079,32.9696969664,4429.27272683,0.0,4223.7272723,12.3636363624,4842.42424194,0.0,4480.78787834,3779.15151477,42.0,42.0,?
2017-06-01 17:27:53.474443,4541.06060561,0.0,4224.75757534,4.1212121208,3898.15151476,107.151515141,3903.81818143,321.454545422,4294.30302987,2781.81818154,4462.75757531,1908.12121193,4224.75757534,2876.60606032,4355.09090866,1351.75757562,5009.33333283,2996.12121182,4196.424242,32.9696969664,4426.69696925,0.0,4220.63636321,12.3636363624,4840.36363588,12.3636363624,4486.96969652,3779.15151477,42.0,42.0,?
2017-06-01 17:27:53.482086,4538.99999955,0.0,4223.21212079,4.1212121208,3898.66666628,107.151515141,3899.18181779,321.454545422,4292.24242381,2781.81818154,4462.2424238,1908.12121193,4215.48484806,2876.60606032,4347.36363593,1351.75757562,5002.12121162,2996.12121182,4187.66666625,41.212121208,4426.69696925,0.0,4221.15151473,12.3636363624,4841.39393891,12.3636363624,4489.5454541,3779.15151477,42.0,42.0,?
2017-06-01 17:27:53.489754,4541.06060561,0.0,4225.78787837,4.1212121208,3901.75757537,107.151515141,3900.21212082,321.454545422,4291.21212078,2781.81818154,4459.66666622,1908.12121193,4204.66666625,2876.60606032,4350.45454502,1351.75757562,4988.72727223,2996.12121182,4180.96969655,41.212121208,4429.27272683,4.1212121208,4221.15151473,12.3636363624,4844.484848,12.3636363624,4490.57575713,3779.15151477,42.0,42.0,?
2017-06-01 17:27:53.497470,4539.51515106,0.0,4223.7272723,4.1212121208,3922.36363597,107.151515141,3906.90909052,321.454545422,4292.75757533,2781.81818154,4458.12121168,1908.12121193,4215.48484806,2876.60606032,4365.39393896,1351.75757562,5000.06060556,2996.12121182,4193.84848443,41.212121208,4430.30302986,4.1212121208,4222.18181776,12.3636363624,4840.87878739,12.3636363624,4506.54545409,3779.15151477,42.0,42.0,?
2017-06-01 17:27:53.507342,4537.454545,0.0,4221.15151473,4.1212121208,3937.81818142,107.151515141,3907.93939355,321.454545422,4299.96969654,2781.81818154,4466.87878743,1908.12121193,4237.63636321,2876.60606032,4373.6363632,1351.75757562,5026.33333283,2996.12121182,4210.33333291,41.212121208,4429.78787834,4.1212121208,4226.8181814,12.3636363624,4842.93939346,12.3636363624,4530.7575753,3779.15151477,42.0,42.0,?
2017-06-01 17:27:53.514196,4536.93939349,0.0,4223.7272723,4.1212121208,3940.393939,107.151515141,3907.42424203,321.454545422,4307.69696927,2781.81818154,4478.21212076,1908.12121193,4246.39393897,2876.60606032,4374.66666623,1351.75757562,5038.69696919,2996.12121182,4222.69696927,41.212121208,4424.12121168,4.1212121208,4226.30302988,12.3636363624,4843.45454497,12.3636363624,4535.90909046,3779.15151477,42.0,42.0,?
2017-06-01 17:27:53.522094,4536.42424197,0.0,4223.7272723,4.1212121208,3941.42424203,107.151515141,3913.0909087,321.454545422,4313.36363593,2781.81818154,4480.78787834,1908.12121193,4256.18181776,2876.60606032,4383.42424199,1351.75757562,5044.87878737,2996.12121182,4237.1212117,41.212121208,4425.66666622,4.1212121208,4224.75757534,12.3636363624,4841.39393891,12.3636363624,4529.21212076,3779.15151477,42.0,42.0,?
2017-06-01 17:27:53.530218,4541.06060561,0.0,4224.75757534,4.1212121208,3934.72727233,107.151515141,3914.12121173,321.454545422,4316.45454502,2781.81818154,4481.81818137,1908.12121193,4268.0303026,2876.60606032,4385.48484805,1351.75757562,5042.3030298,2996.12121182,4235.06060564,41.212121208,4429.78787834,4.1212121208,4226.30302988,12.3636363624,4842.42424194,12.3636363624,4525.60606015,3779.15151477,42.0,42.0,?
2017-06-01 17:27:53.536527,4540.54545409,0.0,4224.24242382,4.1212121208,3925.96969658,107.151515141,3918.75757537,321.454545422,4319.54545411,2781.81818154,4484.39393895,1908.12121193,4261.33333291,2876.60606032,4373.6363632,1351.75757562,5024.27272677,2996.12121182,4222.69696927,41.212121208,4427.21212077,4.1212121208,4225.78787837,12.3636363624,4840.36363588,12.3636363624,4523.03030258,3779.15151477,42.0,42.0,?
2017-06-01 17:27:53.545814,4535.90909046,0.0,4221.15151473,4.1212121208,3927.51515112,107.151515141,3928.54545415,321.454545422,4320.57575714,2781.81818154,4480.27272682,1908.12121193,4246.90909048,2876.60606032,4367.45454502,1351.75757562,5013.96969647,2996.12121182,4220.1212117,41.212121208,4428.2424238,4.1212121208,4225.78787837,12.3636363624,4842.42424194,12.3636363624,4520.96969652,3779.15151477,42.0,42.0,?
2017-06-01 17:27:53.554280,4535.39393894,0.0,4220.63636321,4.1212121208,3925.45454506,107.151515141,3928.03030264,321.454545422,4313.36363593,2781.81818154,4472.03030258,1908.12121193,4235.06060564,2876.60606032,4363.84848441,1351.75757562,5009.33333283,2996.12121182,4214.45454503,41.212121208,4427.21212077,4.1212121208,4225.78787837,12.3636363624,4842.42424194,12.3636363624,4519.93939349,3779.15151477,42.0,42.0,?
2017-06-01 17:27:53.560556,4537.454545,0.0,4221.66666624,4.1212121208,3908.96969658,107.151515141,3916.18181779,321.454545422,4302.0303026,2781.81818154,4465.8484844,1908.12121193,4218.57575715,2876.60606032,4351.99999956,1351.75757562,4991.3030298,2996.12121182,4204.66666625,41.212121208,4427.72727228,4.1212121208,4223.7272723,12.3636363624,4841.90909042,12.3636363624,4517.87878743,3779.15151477,42.0,42.0,?
