Timestamp,F3 Value,F3 Quality,FC5 Value,FC5 Quality,F7 Value,F7 Quality,T7 Value,T7 Quality,P7 Value,P7 Quality,O1 Value,O1 Quality,O2 Value,O2 Quality,P8 Value,P8 Quality,T8 Value,T8 Quality,F8 Value,F8 Quality,AF4 Value,AF4 Quality,FC6 Value,FC6 Quality,F4 Value,F4 Quality,AF3 Value,AF3 Quality,X Value,Y Value,Z Value
2017-06-01 18:04:41.877904,4542.09090864,0,4212.90909049,0,3922.36363597,0,4130.99999959,0,4444.21212077,0,4616.27272681,0,4227.33333291,0,4498.30302985,0,5070.63636313,0,4531.27272682,0,4427.21212077,0,4225.27272685,0,4837.7878783,0,4625.03030257,0,42.0,42.0,?
2017-06-01 18:04:41.878017,4536.93939349,0,4211.87878746,0,3912.57575718,0,3839.42424204,0,4218.06060564,0,4394.2424238,0,4147.48484807,0,4293.27272684,0,4930.51515102,0,3992.42424203,0,4426.69696925,0,4177.36363595,0,4841.39393891,0,4385.99999956,0,42.0,42.0,?
2017-06-01 18:04:41.880578,4544.66666621,0,4214.45454503,0,3917.21212082,0,3834.27272689,0,4218.06060564,0,4390.6363632,0,4146.45454504,0,4289.66666624,0,4936.18181769,0,3995.51515112,0,4429.78787834,0,4178.90909049,0,4840.36363588,0,4386.51515108,0,42.0,42.0,?
2017-06-01 18:04:41.883599,4538.99999955,0,4216.51515109,0,3915.66666628,0,3836.84848446,0,4219.09090867,0,4394.2424238,0,4139.75757534,0,4292.75757533,0,4937.72727223,0,3991.39393899,0,4426.69696925,0,4180.45454504,0,4836.24242376,0,4380.3333329,0,42.0,42.0,?
2017-06-01 18:04:41.886616,4545.18181773,0,4219.09090867,0,3917.72727234,0,3830.15151477,0,4212.39393897,0,4390.12121168,0,4140.78787837,0,4285.54545412,0,4924.84848436,0,3985.72727233,0,4427.72727228,0,4179.93939352,0,4839.84848436,0,4373.6363632,0,42.0,42.0,?
2017-06-01 18:04:41.889606,4545.18181773,0,4219.09090867,0,3917.72727234,0,3830.15151477,0,4212.39393897,0,4390.12121168,0,4140.78787837,0,4285.54545412,0,4924.84848436,0,3985.72727233,0,4427.72727228,0,4179.93939352,0,4839.84848436,0,4373.6363632,0,42.0,42.0,?
2017-06-01 18:04:41.894499,4533.33333288,0,4211.36363594,0,3915.66666628,0,3834.27272689,0,4213.93939352,0,4391.66666623,0,4147.48484807,0,4286.57575715,0,4916.60606011,0,3985.21212081,0,4426.69696925,0,4178.90909049,0,4839.84848436,0,4378.27272683,0,42.0,42.0,?
2017-06-01 18:04:41.900979,4542.60606015,0,4213.93939352,0,3916.69696931,0,3841.99999962,0,4220.1212117,0,4400.42424198,0,4152.63636322,0,4297.90909048,0,4922.27272678,0,3986.24242384,0,4428.2424238,0,4177.36363595,0,4842.42424194,0,4378.27272683,0,42.0,42.0,?
2017-06-01 18:04:41.904024,4544.66666621,0,4215.48484806,0,3914.12121173,0,3847.15151477,0,4220.63636321,0,4398.87878744,0,4152.12121171,0,4297.90909048,0,4933.60606011,0,3987.78787839,0,4424.12121168,0,4176.84848443,0,4840.36363588,0,4375.69696926,0,42.0,42.0,?
2017-06-01 18:04:41.908116,4532.30302985,0,4212.90909049,0,3912.06060567,0,3847.66666628,0,4213.424242,0,4389.09090865,0,4148.5151511,0,4290.18181775,0,4928.45454496,0,3981.60606021,0,4427.21212077,0,4178.90909049,0,4840.36363588,0,4374.15151471,0,42.0,42.0,?
2017-06-01 18:04:41.912579,4542.09090864,0,4217.54545412,0,3916.18181779,0,3833.75757537,0,4209.30302988,0,4390.12121168,0,4144.90909049,0,4282.96969654,0,4918.66666617,0,3973.36363597,0,4431.33333289,0,4180.45454504,0,4840.36363588,0,4370.54545411,0,42.0,42.0,?
2017-06-01 18:04:41.915441,4536.42424197,0,4215.48484806,0,3913.60606021,0,3816.24242386,0,4218.06060564,0,4395.27272683,0,4140.78787837,0,4276.27272685,0,4917.63636314,0,3982.12121172,0,4429.78787834,0,4179.93939352,0,4840.36363588,0,4372.09090865,0,42.0,42.0,?
2017-06-01 18:04:41.918462,4538.48484803,0,4215.48484806,0,3915.15151476,0,3819.33333295,0,4218.57575715,0,4393.21212077,0,4134.09090868,0,4268.54545412,0,4903.21212072,0,3978.51515112,0,4426.69696925,0,4177.36363595,0,4843.96969649,0,4364.36363593,0,42.0,42.0,?
2017-06-01 18:04:41.921403,4540.54545409,0,4212.39393897,0,3914.63636324,0,3840.96969659,0,4211.87878746,0,4389.60606017,0,4126.87878747,0,4272.15151472,0,4895.484848,0,3963.57575718,0,4425.15151471,0,4176.84848443,0,4840.87878739,0,4355.09090866,0,42.0,42.0,?
2017-06-01 18:04:41.924387,4532.81818136,0,4210.33333291,0,3912.57575718,0,3849.72727234,0,4209.30302988,0,4391.15151471,0,4130.99999959,0,4285.54545412,0,4913.51515102,0,3972.84848445,0,4430.81818138,0,4180.96969655,0,4839.84848436,0,4361.27272684,0,42.0,42.0,?
2017-06-01 18:04:41.929242,4544.66666621,0,4215.99999958,0,3919.27272688,0,3835.30302992,0,4207.75757534,0,4394.75757532,0,4140.78787837,0,4287.60606018,0,4924.33333284,0,3990.87878748,0,4429.27272683,0,4180.96969655,0,4841.39393891,0,4368.99999956,0,42.0,42.0,?
2017-06-01 18:04:41.937420,4541.06060561,0,4213.424242,0,3915.66666628,0,3827.06060568,0,4214.45454503,0,4393.72727229,0,4150.06060565,0,4290.18181775,0,4930.51515102,0,3999.63636324,0,4425.66666622,0,4178.39393898,0,4840.36363588,0,4372.60606017,0,42.0,42.0,?
2017-06-01 18:04:41.943667,4542.09090864,0,4216.51515109,0,3914.63636324,0,3829.12121174,0,4219.60606018,0,4392.18181774,0,4154.69696928,0,4291.21212078,0,4937.72727223,0,3999.63636324,0,4428.2424238,0,4179.42424201,0,4842.42424194,0,4370.03030259,0,42.0,42.0,?
2017-06-01 18:04:41.951452,4542.09090864,0,4216.51515109,0,3916.69696931,0,3824.99999962,0,4219.09090867,0,4393.21212077,0,4152.12121171,0,4288.12121169,0,4929.48484799,0,3998.60606021,0,4428.2424238,0,4179.42424201,0,4840.36363588,0,4365.39393896,0,42.0,42.0,?
2017-06-01 18:04:41.959976,4530.24242379,0,4210.84848443,0,3913.60606021,0,3821.39393901,0,4221.15151473,0,4394.2424238,0,4150.06060565,0,4291.7272723,0,4920.21212072,0,4002.21212081,0,4430.30302986,0,4178.39393898,0,4840.36363588,0,4370.03030259,0,42.0,42.0,?
2017-06-01 18:04:41.967529,4543.12121167,0,4217.54545412,0,3915.15151476,0,3828.09090871,0,4220.63636321,0,4395.78787835,0,4149.03030262,0,4285.0303026,0,4919.6969692,0,3999.12121172,0,4428.2424238,0,4176.84848443,0,4842.93939346,0,4374.66666623,0,42.0,42.0,?
2017-06-01 18:04:41.981671,4538.48484803,0,4215.99999958,0,3914.63636324,0,3848.69696931,0,4222.69696927,0,4393.21212077,0,4143.36363595,0,4274.7272723,0,4923.30302981,0,3993.96969657,0,4429.27272683,0,4176.84848443,0,4839.84848436,0,4373.12121168,0,42.0,42.0,?
2017-06-01 18:04:41.982938,4535.90909046,0,4213.93939352,0,3916.69696931,0,3847.15151477,0,4222.69696927,0,4390.12121168,0,4139.24242383,0,4277.30302988,0,4919.18181769,0,3991.90909051,0,4432.87878744,0,4177.36363595,0,4841.90909042,0,4372.60606017,0,42.0,42.0,?
2017-06-01 18:04:41.991782,4543.12121167,0,4218.06060564,0,3916.18181779,0,3828.60606022,0,4219.09090867,0,4390.12121168,0,4142.33333292,0,4287.09090866,0,4921.75757527,0,3997.06060566,0,4426.18181774,0,4177.36363595,0,4840.36363588,0,4375.69696926,0,42.0,42.0,?
2017-06-01 18:04:41.999119,4533.8484844,0,4214.96969655,0,3911.03030264,0,3830.15151477,0,4211.87878746,0,4389.09090865,0,4145.42424201,0,4290.69696927,0,4921.24242375,0,3992.42424203,0,4427.21212077,0,4178.90909049,0,4836.75757527,0,4378.27272683,0,42.0,42.0,?
2017-06-01 18:04:42.007591,4543.12121167,4.1212121208,4217.03030261,0,3915.66666628,0,3826.54545416,0,4211.87878746,0,4389.60606017,0,4137.18181777,0,4283.99999957,0,4921.24242375,0,3992.42424203,0,4429.27272683,0,4178.90909049,0,4839.33333285,0,4373.12121168,0,42.0,42.0,?
2017-06-01 18:04:42.015199,4540.54545409,4.1212121208,4215.48484806,8.2424242416,3917.72727234,0,3827.57575719,0,4211.36363594,0,4390.12121168,0,4128.93939353,0,4275.75757533,0,4906.81818133,0,3985.72727233,0,4424.63636319,0,4176.84848443,0,4839.84848436,0,4370.54545411,0,42.0,42.0,?
2017-06-01 18:04:42.022630,4537.454545,4.1212121208,4216.51515109,8.2424242416,3916.69696931,0,3841.4848481,0,4215.99999958,0,4391.66666623,0,4136.15151474,0,4271.12121169,0,4922.27272678,0,3987.78787839,0,4426.69696925,0,4177.36363595,0,4841.90909042,0,4373.6363632,3762.66666629,42.0,42.0,?
2017-06-01 18:04:42.034892,4545.69696924,4.1212121208,4218.57575715,8.2424242416,3916.69696931,0.0,3837.87878749,0,4215.99999958,0,4393.21212077,0,4143.36363595,0,4276.78787836,0,4929.99999951,0,3988.81818142,0,4429.27272683,0,4177.87878746,0,4841.39393891,0,4378.78787835,3762.66666629,42.0,42.0,?
2017-06-01 18:04:42.041096,4533.8484844,4.1212121208,4213.424242,8.2424242416,3915.66666628,0.0,3830.15151477,4104.72727232,4217.03030261,0,4391.15151471,0,4140.27272686,0,4284.51515109,0,4922.27272678,0,3989.84848445,0,4432.87878744,0,4179.42424201,0,4839.84848436,0,4381.36363593,3762.66666629,42.0,42.0,?
2017-06-01 18:04:42.045513,4542.60606015,4.1212121208,4214.96969655,8.2424242416,3920.30302991,0.0,3835.30302992,4104.72727232,4211.36363594,181.333333315,4391.15151471,0,4138.2121208,0,4279.36363594,0,4914.54545405,0,3983.15151475,0,4431.33333289,0,4179.42424201,0,4841.90909042,0,4376.72727229,3762.66666629,42.0,42.0,?
2017-06-01 18:04:42.054253,4542.60606015,4.1212121208,4210.84848443,8.2424242416,3917.21212082,0.0,3846.12121174,4104.72727232,4209.8181814,181.333333315,4391.15151471,362.66666663,4140.27272686,0,4276.27272685,0,4919.6969692,0,3983.66666627,0,4428.75757531,0,4178.39393898,0,4838.81818133,0,4379.30302987,3762.66666629,42.0,42.0,?
2017-06-01 18:04:42.064072,4532.30302985,4.1212121208,4212.39393897,8.2424242416,3914.12121173,0.0,3836.33333295,4104.72727232,4217.54545412,181.333333315,4392.18181774,362.66666663,4145.42424201,3717.33333296,4279.36363594,0,4931.03030254,0,3994.9999996,0,4434.9393935,0,4179.93939352,0,4840.36363588,0,4388.06060562,3762.66666629,42.0,42.0,?
2017-06-01 18:04:42.076104,4540.03030258,4.1212121208,4218.57575715,8.2424242416,3917.21212082,0.0,3826.03030265,4104.72727232,4215.48484806,181.333333315,4391.66666623,362.66666663,4145.93939352,3717.33333296,4281.424242,1883.39393921,4931.03030254,0,4000.15151475,0,4431.33333289,0,4178.39393898,0,4841.39393891,0,4390.6363632,3762.66666629,42.0,42.0,?
2017-06-01 18:04:42.082181,4532.81818136,4.1212121208,4210.84848443,8.2424242416,3912.06060567,0.0,3841.4848481,4104.72727232,4209.8181814,181.333333315,4392.69696926,362.66666663,4143.36363595,3717.33333296,4290.18181775,1883.39393921,4926.3939389,2946.66666637,4004.78787839,0,4426.18181774,0,4177.87878746,0,4836.24242376,0,4392.69696926,3762.66666629,42.0,42.0,?
2017-06-01 18:04:42.086384,4540.03030258,4.1212121208,4213.424242,8.2424242416,3914.12121173,0.0,3849.21212083,4104.72727232,4217.54545412,181.333333315,4398.87878744,362.66666663,4144.90909049,3717.33333296,4295.3333329,1883.39393921,4927.42424193,2946.66666637,4008.90909051,3589.57575722,4428.2424238,0,4178.90909049,0,4837.27272679,0,4392.69696926,3762.66666629,42.0,42.0,?
2017-06-01 18:04:42.101252,4541.57575712,4.1212121208,4217.03030261,8.2424242416,3916.69696931,0.0,3837.36363598,4104.72727232,4230.424242,181.333333315,4398.36363592,362.66666663,4146.45454504,3717.33333296,4293.27272684,1883.39393921,4935.15151466,2946.66666637,4016.12121172,3589.57575722,4428.75757531,8.2424242416,4178.39393898,0,4838.30302982,0,4397.84848441,3762.66666629,42.0,42.0,?
2017-06-01 18:04:42.103667,4534.36363591,4.1212121208,4214.45454503,8.2424242416,3914.63636324,0.0,3834.27272689,4104.72727232,4225.27272685,181.333333315,4392.18181774,362.66666663,4144.90909049,3717.33333296,4292.24242381,1883.39393921,4931.54545405,2946.66666637,4017.15151475,3589.57575722,4428.2424238,8.2424242416,4179.42424201,8.2424242416,4839.33333285,0,4401.45454501,3762.66666629,42.0,42.0,?
2017-06-01 18:04:42.108402,4544.1515147,4.1212121208,4217.54545412,8.2424242416,3916.69696931,0.0,3846.63636325,4104.72727232,4218.06060564,181.333333315,4393.21212077,362.66666663,4141.30302989,3717.33333296,4281.424242,1883.39393921,4918.15151466,2946.66666637,4005.3030299,3589.57575722,4426.69696925,8.2424242416,4178.90909049,8.2424242416,4839.84848436,0.0,4392.18181774,3762.66666629,42.0,42.0,?
2017-06-01 18:04:42.118232,4535.39393894,4.1212121208,4217.03030261,8.2424242416,3916.18181779,0.0,3847.66666628,4104.72727232,4227.33333291,181.333333315,4392.69696926,362.66666663,4142.33333292,3717.33333296,4274.21212078,1883.39393921,4917.12121163,2946.66666637,4004.78787839,3589.57575722,4430.30302986,8.2424242416,4176.84848443,8.2424242416,4839.33333285,0.0,4391.66666623,3762.66666629,42.0,42.0,?
2017-06-01 18:04:42.123985,4539.51515106,4.1212121208,4217.54545412,8.2424242416,3917.72727234,0.0,3833.75757537,4104.72727232,4222.69696927,181.333333315,4387.54545411,362.66666663,4142.33333292,3717.33333296,4278.33333291,1883.39393921,4914.03030254,2946.66666637,4005.81818142,3589.57575722,4429.78787834,4.1212121208,4178.39393898,8.2424242416,4843.96969649,0.0,4396.30302986,3762.66666629,42.0,42.0,?
2017-06-01 18:04:42.133011,4543.63636318,4.1212121208,4212.90909049,8.2424242416,3914.63636324,0.0,3831.1818178,4104.72727232,4211.87878746,181.333333315,4387.03030259,362.66666663,4137.69696928,3717.33333296,4283.99999957,1883.39393921,4911.45454496,2946.66666637,4000.66666627,3589.57575722,4424.12121168,4.1212121208,4177.87878746,0.0,4842.42424194,0.0,4392.18181774,3762.66666629,42.0,42.0,?
2017-06-01 18:04:42.141526,4532.30302985,4.1212121208,4209.30302988,8.2424242416,3909.99999961,0.0,3838.90909053,4104.72727232,4214.96969655,181.333333315,4388.57575714,362.66666663,4136.66666625,3717.33333296,4283.99999957,1883.39393921,4923.30302981,2946.66666637,3999.63636324,3589.57575722,4429.78787834,4.1212121208,4175.8181814,0.0,4840.36363588,0.0,4387.54545411,3762.66666629,42.0,42.0,?
2017-06-01 18:04:42.154769,4542.09090864,4.1212121208,4218.06060564,8.2424242416,3914.63636324,0.0,3836.84848446,4104.72727232,4215.99999958,181.333333315,4388.57575714,362.66666663,4139.24242383,3717.33333296,4278.84848442,1883.39393921,4929.99999951,2946.66666637,3994.9999996,3589.57575722,4432.87878744,4.1212121208,4177.36363595,0.0,4841.39393891,0.0,4385.48484805,3762.66666629,42.0,42.0,?
2017-06-01 18:04:42.160400,4534.36363591,4.1212121208,4214.96969655,8.2424242416,3916.18181779,0.0,3837.36363598,4104.72727232,4214.45454503,181.333333315,4388.06060562,362.66666663,4141.8181814,3717.33333296,4279.87878745,1883.39393921,4925.36363587,2946.66666637,3996.54545415,3589.57575722,4430.81818138,4.1212121208,4179.42424201,0.0,4836.75757527,0.0,4386.51515108,3762.66666629,42.0,42.0,?
2017-06-01 18:04:42.164715,4533.8484844,4.1212121208,4213.93939352,8.2424242416,3920.30302991,0.0,3844.06060568,4104.72727232,4215.48484806,181.333333315,4389.60606017,362.66666663,4139.75757534,3717.33333296,4282.45454503,1883.39393921,4913.51515102,2946.66666637,3997.06060566,3589.57575722,4429.27272683,4.1212121208,4178.90909049,0.0,4835.72727224,0.0,4384.96969653,3762.66666629,42.0,42.0,?
2017-06-01 18:04:42.170872,4541.57575712,4.1212121208,4215.99999958,8.2424242416,3917.72727234,0.0,3833.24242386,4104.72727232,4220.63636321,181.333333315,4392.18181774,362.66666663,4137.69696928,3717.33333296,4281.93939351,1883.39393921,4911.45454496,2946.66666637,3992.42424203,3589.57575722,4427.21212077,4.1212121208,4177.36363595,0.0,4837.7878783,0.0,4390.12121168,3762.66666629,42.0,42.0,?
2017-06-01 18:04:42.178672,4531.78787833,4.1212121208,4213.93939352,8.2424242416,3910.51515112,0.0,3823.96969659,4104.72727232,4222.18181776,181.333333315,4391.66666623,362.66666663,4142.84848443,3717.33333296,4278.33333291,1883.39393921,4925.87878739,2946.66666637,3998.60606021,3589.57575722,4429.27272683,4.1212121208,4177.36363595,0.0,4840.36363588,0.0,4403.51515107,3762.66666629,42.0,42.0,?
2017-06-01 18:04:42.188150,4541.57575712,4.1212121208,4217.54545412,8.2424242416,3916.69696931,0.0,3840.45454507,4104.72727232,4219.60606018,181.333333315,4392.18181774,362.66666663,4146.45454504,3717.33333296,4272.15151472,1883.39393921,4931.03030254,2946.66666637,4003.75757536,3589.57575722,4429.27272683,4.1212121208,4175.8181814,0.0,4839.84848436,0.0,4405.57575714,3762.66666629,42.0,42.0,?
2017-06-01 18:04:42.193890,4540.03030258,4.1212121208,4214.96969655,8.2424242416,3916.69696931,0.0,3856.42424204,4104.72727232,4224.75757534,181.333333315,4396.30302986,362.66666663,4145.93939352,3717.33333296,4281.424242,1883.39393921,4926.90909042,2946.66666637,4002.21212081,3589.57575722,4428.75757531,4.1212121208,4177.36363595,0.0,4836.75757527,0.0,4395.78787835,3762.66666629,42.0,42.0,?
2017-06-01 18:04:42.201431,4540.54545409,4.1212121208,4218.06060564,8.2424242416,3913.60606021,0.0,3842.51515113,4104.72727232,4225.78787837,181.333333315,4397.84848441,362.66666663,4146.45454504,3717.33333296,4291.21212078,1883.39393921,4919.18181769,2946.66666637,4001.18181778,3589.57575722,4431.84848441,4.1212121208,4178.90909049,0.0,4841.39393891,0.0,4391.15151471,3762.66666629,42.0,42.0,?
2017-06-01 18:04:42.211521,4545.69696924,4.1212121208,4218.06060564,8.2424242416,3915.15151476,0.0,3844.06060568,4104.72727232,4219.60606018,181.333333315,4392.18181774,362.66666663,4146.96969656,3717.33333296,4288.63636321,1883.39393921,4920.21212072,2946.66666637,4005.81818142,3589.57575722,4429.27272683,4.1212121208,4178.90909049,0.0,4842.93939346,0.0,4396.81818138,3762.66666629,42.0,42.0,?
2017-06-01 18:04:42.218093,4533.33333288,4.1212121208,4210.84848443,8.2424242416,3911.03030264,0.0,3870.33333295,4104.72727232,4222.18181776,181.333333315,4392.18181774,362.66666663,4149.54545413,3717.33333296,4295.3333329,1883.39393921,4936.18181769,2946.66666637,4016.63636323,3589.57575722,4428.2424238,4.1212121208,4180.96969655,0.0,4838.81818133,0.0,4408.15151471,3762.66666629,42.0,42.0,?
2017-06-01 18:04:42.227026,4545.18181773,4.1212121208,4215.99999958,8.2424242416,3914.63636324,0.0,3855.90909052,4104.72727232,4228.87878746,181.333333315,4396.81818138,362.66666663,4148.5151511,3717.33333296,4299.96969654,1883.39393921,4928.45454496,2946.66666637,4018.18181778,3589.57575722,4430.30302986,4.1212121208,4179.93939352,0.0,4838.81818133,0.0,4406.60606017,3762.66666629,42.0,42.0,?
2017-06-01 18:04:42.233433,4544.1515147,4.1212121208,4212.90909049,8.2424242416,3916.69696931,0.0,3836.84848446,4104.72727232,4230.93939352,181.333333315,4395.78787835,362.66666663,4144.90909049,3717.33333296,4290.18181775,1883.39393921,4915.57575708,2946.66666637,4011.9999996,3589.57575722,4430.81818138,4.1212121208,4177.36363595,0.0,4838.81818133,0.0,4396.30302986,3762.66666629,42.0,42.0,?
2017-06-01 18:04:42.242267,4534.36363591,4.1212121208,4211.36363594,8.2424242416,3915.66666628,0.0,3850.75757537,4104.72727232,4226.8181814,181.333333315,4394.2424238,362.66666663,4144.39393898,3717.33333296,4279.87878745,1883.39393921,4929.99999951,2946.66666637,4000.15151475,3589.57575722,4430.30302986,4.1212121208,4178.90909049,0.0,4842.42424194,0.0,4388.06060562,3762.66666629,42.0,42.0,?
2017-06-01 18:04:42.248846,4540.54545409,4.1212121208,4217.03030261,8.2424242416,3916.18181779,0.0,3851.27272689,4104.72727232,4222.69696927,181.333333315,4392.69696926,362.66666663,4146.45454504,3717.33333296,4283.48484806,1883.39393921,4938.24242375,2946.66666637,3992.42424203,3589.57575722,4426.18181774,4.1212121208,4180.45454504,0.0,4840.36363588,0.0,4386.51515108,3762.66666629,42.0,42.0,?
2017-06-01 18:04:42.256774,4534.87878743,4.1212121208,4212.90909049,8.2424242416,3913.60606021,0.0,3841.4848481,4104.72727232,4227.33333291,181.333333315,4393.21212077,362.66666663,4150.06060565,3717.33333296,4295.84848442,1883.39393921,4930.51515102,2946.66666637,3998.60606021,3589.57575722,4430.81818138,4.1212121208,4180.96969655,0.0,4837.27272679,0.0,4394.75757532,3762.66666629,42.0,42.0,?
2017-06-01 18:04:42.268228,4543.12121167,4.1212121208,4214.45454503,8.2424242416,3918.75757537,0.0,3844.57575719,4104.72727232,4225.78787837,181.333333315,4397.33333289,362.66666663,4146.96969656,3717.33333296,4296.36363593,1883.39393921,4928.45454496,2946.66666637,3996.54545415,3589.57575722,4432.87878744,4.1212121208,4178.90909049,0.0,4840.87878739,0.0,4393.72727229,3762.66666629,42.0,42.0,?
2017-06-01 18:04:42.274513,4540.54545409,4.1212121208,4215.99999958,8.2424242416,3917.21212082,0.0,3845.60606022,4104.72727232,4220.63636321,181.333333315,4395.27272683,362.66666663,4144.39393898,3717.33333296,4290.69696927,1883.39393921,4932.06060557,2946.66666637,3990.36363596,3589.57575722,4425.66666622,4.1212121208,4175.8181814,0.0,4839.33333285,0.0,4385.99999956,3762.66666629,42.0,42.0,?
2017-06-01 18:04:42.280186,4534.36363591,4.1212121208,4215.99999958,8.2424242416,3912.57575718,0.0,3837.87878749,4104.72727232,4222.18181776,181.333333315,4393.21212077,362.66666663,4151.60606019,3717.33333296,4291.7272723,1883.39393921,4927.42424193,2946.66666637,3990.87878748,3589.57575722,4428.2424238,4.1212121208,4179.42424201,0.0,4837.7878783,0.0,4393.21212077,3762.66666629,42.0,42.0,?
2017-06-01 18:04:42.289383,4546.72727227,4.1212121208,4217.03030261,8.2424242416,3917.21212082,0.0,3839.93939356,4104.72727232,4224.24242382,181.333333315,4398.36363592,362.66666663,4154.69696928,3717.33333296,4292.24242381,1883.39393921,4922.27272678,2946.66666637,3994.9999996,3589.57575722,4430.30302986,4.1212121208,4180.96969655,0.0,4837.27272679,0.0,4405.57575714,3762.66666629,42.0,42.0,?
2017-06-01 18:04:42.296699,4540.54545409,4.1212121208,4212.90909049,8.2424242416,3916.18181779,0.0,3852.81818143,4104.72727232,4226.30302988,181.333333315,4398.36363592,362.66666663,4151.09090868,3717.33333296,4292.24242381,1883.39393921,4928.96969648,2946.66666637,4002.72727233,3589.57575722,4429.27272683,4.1212121208,4177.36363595,0.0,4839.84848436,0.0,4405.06060562,3762.66666629,42.0,42.0,?
2017-06-01 18:04:42.304383,4545.69696924,4.1212121208,4216.51515109,8.2424242416,3917.72727234,0.0,3844.57575719,4104.72727232,4226.30302988,181.333333315,4396.81818138,362.66666663,4149.03030262,3717.33333296,4286.06060563,1883.39393921,4931.54545405,2946.66666637,3999.12121172,3589.57575722,4431.33333289,4.1212121208,4177.36363595,0.0,4844.484848,0.0,4394.75757532,3762.66666629,42.0,42.0,?
2017-06-01 18:04:42.312574,4545.18181773,4.1212121208,4214.96969655,8.2424242416,3917.72727234,0.0,3836.84848446,4104.72727232,4225.27272685,181.333333315,4395.78787835,362.66666663,4146.96969656,3717.33333296,4282.45454503,1883.39393921,4928.96969648,2946.66666637,3991.39393899,3589.57575722,4428.75757531,4.1212121208,4179.93939352,0.0,4838.81818133,0.0,4394.2424238,3762.66666629,42.0,42.0,?
2017-06-01 18:04:42.320210,4532.81818136,4.1212121208,4211.36363594,8.2424242416,3915.66666628,0.0,3841.4848481,4104.72727232,4219.60606018,181.333333315,4390.6363632,362.66666663,4143.87878746,3717.33333296,4282.96969654,1883.39393921,4922.27272678,2946.66666637,3991.39393899,3589.57575722,4430.30302986,4.1212121208,4178.39393898,0.0,4839.33333285,0.0,4392.18181774,3762.66666629,42.0,42.0,?
2017-06-01 18:04:42.326536,4541.57575712,4.1212121208,4218.57575715,8.2424242416,3917.21212082,0.0,3839.42424204,4104.72727232,4214.96969655,181.333333315,4390.6363632,362.66666663,4141.30302989,3717.33333296,4277.81818139,1883.39393921,4914.54545405,2946.66666637,3985.72727233,3589.57575722,4430.81818138,4.1212121208,4175.8181814,0.0,4842.93939346,0.0,4382.39393896,3762.66666629,42.0,42.0,?
2017-06-01 18:04:42.334441,4536.42424197,4.1212121208,4215.48484806,8.2424242416,3914.12121173,0.0,3843.54545416,4104.72727232,4219.09090867,181.333333315,4391.66666623,362.66666663,4140.27272686,3717.33333296,4279.36363594,1883.39393921,4917.12121163,2946.66666637,3980.57575718,3589.57575722,4428.75757531,4.1212121208,4177.87878746,0.0,4837.7878783,0.0,4382.90909047,3762.66666629,42.0,42.0,?
2017-06-01 18:04:42.343111,4540.03030258,4.1212121208,4215.48484806,8.2424242416,3917.21212082,0.0,3849.21212083,4104.72727232,4216.51515109,181.333333315,4387.54545411,362.66666663,4142.84848443,3717.33333296,4282.45454503,1883.39393921,4911.96969648,2946.66666637,3977.48484809,3589.57575722,4428.2424238,4.1212121208,4179.42424201,0.0,4838.30302982,0.0,4384.96969653,3762.66666629,42.0,42.0,?
2017-06-01 18:04:42.350392,4543.63636318,4.1212121208,4216.51515109,8.2424242416,3917.21212082,0.0,3850.75757537,4104.72727232,4218.57575715,181.333333315,4389.09090865,362.66666663,4147.99999959,3717.33333296,4282.96969654,1883.39393921,4912.99999951,2946.66666637,3981.60606021,3589.57575722,4425.66666622,4.1212121208,4176.84848443,0.0,4837.7878783,0.0,4382.39393896,3762.66666629,42.0,42.0,?
2017-06-01 18:04:42.358506,4535.39393894,4.1212121208,4213.93939352,8.2424242416,3913.60606021,0.0,3848.1818178,4104.72727232,4227.84848443,181.333333315,4394.75757532,362.66666663,4151.60606019,3717.33333296,4286.57575715,1883.39393921,4933.60606011,2946.66666637,3990.36363596,3589.57575722,4427.72727228,4.1212121208,4176.33333292,0.0,4837.27272679,0.0,4379.81818138,3762.66666629,42.0,42.0,?
2017-06-01 18:04:42.366025,4546.72727227,4.1212121208,4214.45454503,8.2424242416,3918.75757537,0.0,3840.96969659,4104.72727232,4220.63636321,181.333333315,4393.72727229,362.66666663,4145.93939352,3717.33333296,4281.424242,1883.39393921,4930.51515102,2946.66666637,3986.24242384,3589.57575722,4427.21212077,4.1212121208,4177.36363595,0.0,4839.84848436,0.0,4374.15151471,3762.66666629,42.0,42.0,?
2017-06-01 18:04:42.375682,4540.54545409,4.1212121208,4209.30302988,8.2424242416,3917.21212082,0.0,3847.66666628,4104.72727232,4220.63636321,181.333333315,4388.57575714,362.66666663,4140.78787837,3717.33333296,4279.36363594,1883.39393921,4916.60606011,2946.66666637,3987.27272687,3589.57575722,4428.2424238,4.1212121208,4177.87878746,0.0,4839.33333285,0.0,4378.78787835,3762.66666629,42.0,42.0,?
2017-06-01 18:04:42.382189,4538.99999955,4.1212121208,4213.93939352,8.2424242416,3916.18181779,0.0,3845.09090871,4104.72727232,4231.96969655,181.333333315,4392.18181774,362.66666663,4143.36363595,3717.33333296,4286.06060563,1883.39393921,4922.7878783,2946.66666637,3995.51515112,3589.57575722,4434.42424198,4.1212121208,4179.42424201,0.0,4840.36363588,0.0,4389.09090865,3762.66666629,42.0,42.0,?
2017-06-01 18:04:42.389870,4543.12121167,4.1212121208,4217.03030261,8.2424242416,3917.21212082,0.0,3832.21212083,4104.72727232,4226.30302988,181.333333315,4394.75757532,362.66666663,4142.84848443,3717.33333296,4286.57575715,1883.39393921,4927.93939345,2946.66666637,3996.03030263,3589.57575722,4431.84848441,4.1212121208,4177.36363595,0.0,4839.84848436,0.0,4388.57575714,3762.66666629,42.0,42.0,?
2017-06-01 18:04:42.397831,4531.78787833,4.1212121208,4210.84848443,8.2424242416,3912.57575718,0.0,3840.96969659,4104.72727232,4218.06060564,181.333333315,4387.54545411,362.66666663,4140.78787837,3717.33333296,4283.99999957,1883.39393921,4925.36363587,2946.66666637,3994.48484809,3589.57575722,4429.78787834,4.1212121208,4175.8181814,0.0,4840.87878739,0.0,4383.9393935,3762.66666629,42.0,42.0,?
2017-06-01 18:04:42.408067,4542.60606015,4.1212121208,4213.93939352,8.2424242416,3913.60606021,0.0,3854.87878749,4104.72727232,4216.51515109,181.333333315,4387.03030259,362.66666663,4141.30302989,3717.33333296,4285.0303026,1883.39393921,4920.21212072,2946.66666637,3989.84848445,3589.57575722,4429.27272683,4.1212121208,4177.87878746,0.0,4842.93939346,0.0,4384.96969653,3762.66666629,42.0,42.0,?
2017-06-01 18:04:42.413243,4537.96969652,4.1212121208,4211.87878746,8.2424242416,3912.06060567,0.0,3845.60606022,4104.72727232,4214.45454503,181.333333315,4389.60606017,362.66666663,4141.30302989,3717.33333296,4280.39393897,1883.39393921,4917.12121163,2946.66666637,3987.27272687,3589.57575722,4429.78787834,4.1212121208,4180.96969655,0.0,4837.27272679,0.0,4387.54545411,3762.66666629,42.0,42.0,?
2017-06-01 18:04:42.421059,4533.33333288,4.1212121208,4211.87878746,8.2424242416,3914.12121173,0.0,3835.81818143,4104.72727232,4209.30302988,181.333333315,4388.57575714,362.66666663,4142.33333292,3717.33333296,4266.99999957,1883.39393921,4914.03030254,2946.66666637,3984.6969693,3589.57575722,4430.81818138,4.1212121208,4181.99999958,0.0,4838.81818133,0.0,4380.3333329,3762.66666629,42.0,42.0,?
2017-06-01 18:04:42.428607,4542.09090864,4.1212121208,4215.99999958,8.2424242416,3916.69696931,0.0,3840.96969659,4104.72727232,4212.90909049,181.333333315,4388.06060562,362.66666663,4145.93939352,3717.33333296,4269.06060563,1883.39393921,4913.51515102,2946.66666637,3984.18181778,3589.57575722,4426.18181774,4.1212121208,4177.36363595,0.0,4840.87878739,0.0,4376.72727229,3762.66666629,42.0,42.0,?
2017-06-01 18:04:42.438215,4530.24242379,4.1212121208,4212.39393897,8.2424242416,3913.60606021,0.0,3834.7878784,4104.72727232,4222.69696927,181.333333315,4389.09090865,362.66666663,4151.60606019,3717.33333296,4293.78787836,1883.39393921,4924.33333284,2946.66666637,3992.93939354,3589.57575722,4427.72727228,4.1212121208,4175.8181814,0.0,4837.27272679,0.0,4385.99999956,3762.66666629,42.0,42.0,?
2017-06-01 18:04:42.444456,4537.96969652,4.1212121208,4218.06060564,8.2424242416,3917.72727234,0.0,3827.06060568,4104.72727232,4221.15151473,181.333333315,4391.66666623,362.66666663,4155.72727231,3717.33333296,4300.99999957,1883.39393921,4933.0909086,2946.66666637,3998.09090869,3589.57575722,4429.78787834,4.1212121208,4178.39393898,0.0,4837.7878783,0.0,4388.57575714,3762.66666629,42.0,42.0,?
2017-06-01 18:04:42.453115,4541.06060561,4.1212121208,4218.06060564,8.2424242416,3915.66666628,0.0,3852.30302992,4104.72727232,4219.09090867,181.333333315,4392.69696926,362.66666663,4156.24242383,3717.33333296,4292.75757533,1883.39393921,4929.48484799,2946.66666637,3999.63636324,3589.57575722,4427.21212077,4.1212121208,4177.87878746,0.0,4836.75757527,0.0,4386.51515108,3762.66666629,42.0,42.0,?
2017-06-01 18:04:42.460749,4537.96969652,4.1212121208,4216.51515109,8.2424242416,3915.15151476,0.0,3870.33333295,4104.72727232,4219.60606018,181.333333315,4393.72727229,362.66666663,4150.06060565,3717.33333296,4285.54545412,1883.39393921,4920.21212072,2946.66666637,3999.63636324,3589.57575722,4427.72727228,4.1212121208,4176.33333292,0.0,4839.33333285,0.0,4389.60606017,3762.66666629,42.0,42.0,?
2017-06-01 18:04:42.468439,4542.09090864,4.1212121208,4218.06060564,8.2424242416,3918.24242385,0.0,3850.75757537,4104.72727232,4223.21212079,181.333333315,4395.27272683,362.66666663,4145.93939352,3717.33333296,4278.84848442,1883.39393921,4925.36363587,2946.66666637,3997.57575718,3589.57575722,4426.18181774,4.1212121208,4177.36363595,0.0,4839.33333285,0.0,4391.66666623,3762.66666629,42.0,42.0,?
2017-06-01 18:04:42.475972,4531.27272682,4.1212121208,4212.39393897,8.2424242416,3914.12121173,0.0,3843.03030265,4104.72727232,4229.39393897,181.333333315,4392.18181774,362.66666663,4145.93939352,3717.33333296,4277.30302988,1883.39393921,4931.54545405,2946.66666637,3998.60606021,3589.57575722,4429.27272683,4.1212121208,4179.93939352,0.0,4837.27272679,0.0,4390.12121168,3762.66666629,42.0,42.0,?
2017-06-01 18:04:42.485297,4541.06060561,4.1212121208,4214.96969655,8.2424242416,3917.21212082,0.0,3849.72727234,4104.72727232,4224.75757534,181.333333315,4388.57575714,362.66666663,4141.8181814,3717.33333296,4277.81818139,1883.39393921,4916.60606011,2946.66666637,3999.63636324,3589.57575722,4432.87878744,4.1212121208,4177.87878746,0.0,4840.87878739,0.0,4385.99999956,3762.66666629,42.0,42.0,?
2017-06-01 18:04:42.491876,4541.06060561,4.1212121208,4214.96969655,8.2424242416,3917.21212082,0.0,3847.15151477,4104.72727232,4224.75757534,181.333333315,4388.06060562,362.66666663,4140.27272686,3717.33333296,4287.09090866,1883.39393921,4922.27272678,2946.66666637,4006.33333293,3589.57575722,4426.69696925,4.1212121208,4177.36363595,0.0,4840.36363588,0.0,4389.09090865,3762.66666629,42.0,42.0,?
2017-06-01 18:04:42.498399,4529.21212076,4.1212121208,4213.424242,8.2424242416,3913.0909087,0.0,3852.30302992,4104.72727232,4234.03030261,181.333333315,4392.69696926,362.66666663,4148.5151511,3717.33333296,4298.42424199,1883.39393921,4938.24242375,2946.66666637,4009.42424202,3589.57575722,4426.18181774,4.1212121208,4180.96969655,0.0,4842.42424194,0.0,4393.72727229,3762.66666629,42.0,42.0,?
2017-06-01 18:04:42.508264,4542.09090864,4.1212121208,4217.54545412,8.2424242416,3916.18181779,0.0,3862.0909087,4104.72727232,4231.96969655,181.333333315,4396.81818138,362.66666663,4153.15151474,3717.33333296,4292.75757533,1883.39393921,4922.27272678,2946.66666637,4000.15151475,3589.57575722,4430.30302986,4.1212121208,4180.45454504,0.0,4846.54545406,0.0,4388.57575714,3762.66666629,42.0,42.0,?
2017-06-01 18:04:42.517112,4535.39393894,4.1212121208,4210.84848443,8.2424242416,3915.15151476,0.0,3861.06060567,4104.72727232,4220.1212117,181.333333315,4391.66666623,362.66666663,4151.09090868,3717.33333296,4284.51515109,1883.39393921,4915.57575708,2946.66666637,4002.72727233,3589.57575722,4425.15151471,4.1212121208,4176.84848443,0.0,4838.30302982,0.0,4388.06060562,3762.66666629,42.0,42.0,?
2017-06-01 18:04:42.523185,4539.51515106,4.1212121208,4212.90909049,8.2424242416,3916.69696931,0.0,3850.75757537,4104.72727232,4214.96969655,181.333333315,4385.99999956,362.66666663,4150.57575716,3717.33333296,4282.96969654,1883.39393921,4931.54545405,2946.66666637,4006.84848445,3589.57575722,4425.15151471,4.1212121208,4177.36363595,0.0,4837.27272679,0.0,4391.66666623,3762.66666629,42.0,42.0,?
2017-06-01 18:04:42.530727,4545.18181773,4.1212121208,4217.03030261,8.2424242416,3915.15151476,0.0,3841.99999962,4104.72727232,4223.7272723,181.333333315,4388.57575714,362.66666663,4151.60606019,3717.33333296,4283.48484806,1883.39393921,4934.63636314,2946.66666637,4005.81818142,3589.57575722,4431.84848441,4.1212121208,4179.93939352,0.0,4842.93939346,0.0,4394.75757532,3770.90909053,42.0,42.0,?
2017-06-01 18:04:42.538394,4532.81818136,4.1212121208,4215.99999958,8.2424242416,3913.0909087,8.2424242416,3837.36363598,4104.72727232,4228.87878746,181.333333315,4390.12121168,362.66666663,4150.57575716,3717.33333296,4281.424242,1883.39393921,4925.87878739,2946.66666637,4008.90909051,3589.57575722,4427.72727228,4.1212121208,4179.42424201,0.0,4837.7878783,0.0,4400.42424198,3770.90909053,42.0,42.0,?
2017-06-01 18:04:42.546227,4545.18181773,4.1212121208,4218.57575715,8.2424242416,3918.75757537,8.2424242416,3840.96969659,4108.84848444,4218.57575715,181.333333315,4387.54545411,362.66666663,4143.36363595,3717.33333296,4270.60606018,1883.39393921,4918.15151466,2946.66666637,4001.6969693,3589.57575722,4429.27272683,4.1212121208,4180.45454504,0.0,4839.33333285,0.0,4395.27272683,3770.90909053,42.0,42.0,?
2017-06-01 18:04:42.553974,4541.57575712,4.1212121208,4213.93939352,8.2424242416,3914.12121173,8.2424242416,3850.24242386,4108.84848444,4215.99999958,189.575757557,4385.99999956,362.66666663,4135.63636322,3717.33333296,4269.57575715,1883.39393921,4921.24242375,2946.66666637,3989.84848445,3589.57575722,4431.33333289,4.1212121208,4179.42424201,0.0,4839.33333285,0.0,4387.03030259,3770.90909053,42.0,42.0,?
2017-06-01 18:04:42.561420,4538.99999955,4.1212121208,4217.54545412,8.2424242416,3914.12121173,8.2424242416,3843.03030265,4108.84848444,4218.06060564,189.575757557,4387.03030259,362.66666663,4136.66666625,3717.33333296,4277.30302988,1883.39393921,4927.42424193,2946.66666637,3986.75757536,3589.57575722,4425.66666622,4.1212121208,4174.78787837,0.0,4836.75757527,0.0,4387.03030259,3770.90909053,42.0,42.0,?
2017-06-01 18:04:42.571566,4547.24242379,4.1212121208,4219.60606018,8.2424242416,3917.72727234,8.2424242416,3841.99999962,4108.84848444,4215.99999958,189.575757557,4387.03030259,362.66666663,4137.69696928,3709.09090872,4277.81818139,1883.39393921,4924.33333284,2946.66666637,3988.3030299,3589.57575722,4433.39393895,4.1212121208,4176.84848443,0.0,4845.51515103,0.0,4387.54545411,3770.90909053,42.0,42.0,?
2017-06-01 18:04:42.577730,4531.78787833,4.1212121208,4211.36363594,8.2424242416,3914.12121173,8.2424242416,3858.4848481,4108.84848444,4218.06060564,189.575757557,4388.57575714,362.66666663,4134.60606019,3709.09090872,4273.18181775,1891.63636345,4920.72727224,2946.66666637,3988.3030299,3589.57575722,4431.84848441,4.1212121208,4180.96969655,0.0,4840.36363588,0.0,4382.39393896,3770.90909053,42.0,42.0,?
2017-06-01 18:04:42.584418,4535.90909046,4.1212121208,4213.93939352,8.2424242416,3914.12121173,8.2424242416,3855.90909052,4108.84848444,4219.60606018,189.575757557,4392.18181774,362.66666663,4138.2121208,3709.09090872,4270.09090866,1891.63636345,4923.30302981,2942.54545425,3989.33333293,3589.57575722,4422.57575713,4.1212121208,4178.90909049,0.0,4832.63636315,0.0,4384.96969653,3770.90909053,42.0,42.0,?
2017-06-01 18:04:42.593594,4539.51515106,4.1212121208,4213.424242,8.2424242416,3913.60606021,8.2424242416,3845.09090871,4108.84848444,4222.18181776,189.575757557,4388.06060562,362.66666663,4145.93939352,3709.09090872,4279.36363594,1891.63636345,4936.18181769,2942.54545425,4001.6969693,3585.4545451,4430.81818138,4.1212121208,4178.90909049,0.0,4840.36363588,0.0,4396.30302986,3770.90909053,42.0,42.0,?
2017-06-01 18:04:42.601255,4538.48484803,4.1212121208,4214.96969655,8.2424242416,3917.21212082,8.2424242416,3841.99999962,4108.84848444,4223.21212079,189.575757557,4382.90909047,362.66666663,4145.93939352,3709.09090872,4288.12121169,1891.63636345,4937.72727223,2942.54545425,4005.3030299,3585.4545451,4433.90909047,0.0,4179.93939352,0.0,4844.99999952,0.0,4394.75757532,3770.90909053,42.0,42.0,?
2017-06-01 18:04:42.611503,4538.99999955,4.1212121208,4217.54545412,8.2424242416,3918.75757537,8.2424242416,3844.06060568,4108.84848444,4224.24242382,189.575757557,4384.45454502,362.66666663,4146.45454504,3709.09090872,4288.63636321,1891.63636345,4920.72727224,2942.54545425,3999.12121172,3585.4545451,4424.12121168,0.0,4177.87878746,12.3636363624,4836.75757527,0.0,4392.69696926,3770.90909053,42.0,42.0,?
2017-06-01 18:04:42.620503,4532.81818136,4.1212121208,4214.45454503,8.2424242416,3914.12121173,8.2424242416,3856.93939355,4108.84848444,4226.8181814,189.575757557,4384.96969653,362.66666663,4151.60606019,3709.09090872,4288.63636321,1891.63636345,4923.30302981,2942.54545425,4004.78787839,3585.4545451,4430.30302986,0.0,4178.39393898,12.3636363624,4839.33333285,0.0,4400.42424198,3770.90909053,42.0,42.0,?
2017-06-01 18:04:42.625660,4545.69696924,4.1212121208,4217.03030261,8.2424242416,3916.18181779,8.2424242416,3856.93939355,4108.84848444,4221.66666624,189.575757557,4384.96969653,362.66666663,4151.09090868,3709.09090872,4283.99999957,1891.63636345,4935.66666617,2942.54545425,4005.81818142,3577.21212085,4433.90909047,0.0,4179.93939352,12.3636363624,4844.99999952,0.0,4397.33333289,3770.90909053,42.0,42.0,?
2017-06-01 18:04:42.631985,4537.454545,4.1212121208,4212.90909049,8.2424242416,3916.18181779,8.2424242416,3848.69696931,4108.84848444,4222.69696927,189.575757557,4390.6363632,362.66666663,4149.03030262,3709.09090872,4282.96969654,1891.63636345,4932.57575708,2942.54545425,4004.27272687,3577.21212085,4425.66666622,12.3636363624,4178.90909049,12.3636363624,4836.24242376,0.0,4396.81818138,3770.90909053,42.0,42.0,?
2017-06-01 18:04:42.640440,4533.8484844,4.1212121208,4214.96969655,8.2424242416,3916.18181779,8.2424242416,3849.72727234,4108.84848444,4222.18181776,189.575757557,4395.27272683,362.66666663,4149.54545413,3709.09090872,4281.93939351,1891.63636345,4922.27272678,2942.54545425,4006.33333293,3577.21212085,4432.87878744,12.3636363624,4179.93939352,12.3636363624,4841.90909042,0.0,4400.9393935,3770.90909053,42.0,42.0,?
2017-06-01 18:04:42.648417,4544.1515147,4.1212121208,4218.57575715,8.2424242416,3915.15151476,8.2424242416,3854.87878749,4108.84848444,4217.03030261,189.575757557,4392.18181774,362.66666663,4143.87878746,3709.09090872,4272.66666624,1891.63636345,4927.93939345,2942.54545425,4001.18181778,3577.21212085,4430.30302986,12.3636363624,4179.42424201,12.3636363624,4844.484848,0.0,4395.27272683,3770.90909053,42.0,42.0,?
2017-06-01 18:04:42.657029,4533.33333288,4.1212121208,4209.8181814,8.2424242416,3909.99999961,8.2424242416,3856.93939355,4108.84848444,4225.27272685,189.575757557,4390.6363632,362.66666663,4140.27272686,3709.09090872,4271.63636321,1891.63636345,4933.60606011,2942.54545425,3995.51515112,3577.21212085,4424.63636319,12.3636363624,4178.39393898,12.3636363624,4836.75757527,0.0,4392.18181774,3770.90909053,42.0,42.0,?
2017-06-01 18:04:42.666001,4542.09090864,4.1212121208,4213.424242,8.2424242416,3915.15151476,8.2424242416,3846.12121174,4108.84848444,4225.78787837,189.575757557,4391.66666623,362.66666663,4142.84848443,3709.09090872,4278.84848442,1891.63636345,4919.6969692,2942.54545425,3990.36363596,3577.21212085,4431.84848441,12.3636363624,4176.33333292,12.3636363624,4839.84848436,0.0,4385.48484805,3770.90909053,42.0,42.0,?
2017-06-01 18:04:42.670969,4539.51515106,4.1212121208,4213.93939352,8.2424242416,3916.18181779,8.2424242416,3839.42424204,4108.84848444,4219.60606018,189.575757557,4387.03030259,362.66666663,4145.93939352,3709.09090872,4284.51515109,1891.63636345,4925.87878739,2942.54545425,3990.87878748,3577.21212085,4428.75757531,12.3636363624,4176.33333292,12.3636363624,4837.27272679,0.0,4381.87878744,3770.90909053,42.0,42.0,?
2017-06-01 18:04:42.679864,4534.36363591,4.1212121208,4212.90909049,8.2424242416,3916.69696931,8.2424242416,3847.66666628,4108.84848444,4222.69696927,189.575757557,4384.45454502,362.66666663,4149.03030262,3709.09090872,4286.57575715,1891.63636345,4945.45454496,2942.54545425,3997.06060566,3577.21212085,4427.21212077,12.3636363624,4181.99999958,12.3636363624,4839.33333285,0.0,4390.6363632,3770.90909053,42.0,42.0,?
2017-06-01 18:04:42.690165,4543.12121167,4.1212121208,4215.99999958,8.2424242416,3919.7878784,8.2424242416,3853.84848446,4108.84848444,4229.39393897,189.575757557,4385.48484805,362.66666663,4149.54545413,3709.09090872,4285.0303026,1891.63636345,4937.72727223,2942.54545425,3999.63636324,3577.21212085,4426.69696925,12.3636363624,4180.96969655,12.3636363624,4842.42424194,0.0,4393.72727229,3770.90909053,42.0,42.0,?
2017-06-01 18:04:42.694438,4531.78787833,4.1212121208,4213.93939352,8.2424242416,3915.15151476,8.2424242416,3849.72727234,4108.84848444,4229.90909049,189.575757557,4383.42424199,362.66666663,4150.06060565,3709.09090872,4286.06060563,1891.63636345,4927.93939345,2942.54545425,4001.18181778,3577.21212085,4430.30302986,12.3636363624,4177.87878746,12.3636363624,4840.36363588,0.0,4391.15151471,3770.90909053,42.0,42.0,?
2017-06-01 18:04:42.702434,4538.99999955,4.1212121208,4219.09090867,8.2424242416,3917.72727234,8.2424242416,3849.21212083,4108.84848444,4224.24242382,189.575757557,4382.90909047,362.66666663,4150.57575716,3709.09090872,4282.96969654,1891.63636345,4931.54545405,2942.54545425,3998.60606021,3577.21212085,4430.30302986,12.3636363624,4179.93939352,12.3636363624,4841.90909042,0.0,4391.15151471,3770.90909053,42.0,42.0,?
2017-06-01 18:04:42.711318,4542.09090864,4.1212121208,4217.03030261,8.2424242416,3917.72727234,8.2424242416,3852.81818143,4108.84848444,4223.7272723,189.575757557,4381.87878744,362.66666663,4148.5151511,3709.09090872,4282.96969654,1891.63636345,4933.0909086,2942.54545425,3998.60606021,3577.21212085,4425.66666622,12.3636363624,4177.87878746,12.3636363624,4837.27272679,0.0,4393.21212077,3770.90909053,42.0,42.0,?
2017-06-01 18:04:42.719086,4535.90909046,4.1212121208,4213.93939352,8.2424242416,3914.63636324,8.2424242416,3832.21212083,4108.84848444,4222.69696927,189.575757557,4381.36363593,362.66666663,4147.48484807,3709.09090872,4287.09090866,1891.63636345,4926.90909042,2942.54545425,4000.15151475,3577.21212085,4433.39393895,12.3636363624,4174.78787837,12.3636363624,4840.36363588,0.0,4390.6363632,3770.90909053,42.0,42.0,?
2017-06-01 18:04:42.726107,4543.12121167,4.1212121208,4216.51515109,8.2424242416,3917.21212082,8.2424242416,3826.03030265,4108.84848444,4217.03030261,189.575757557,4386.51515108,362.66666663,4146.96969656,3709.09090872,4279.87878745,1891.63636345,4921.24242375,2942.54545425,3992.42424203,3577.21212085,4430.30302986,12.3636363624,4175.8181814,12.3636363624,4839.84848436,0.0,4383.42424199,3770.90909053,42.0,42.0,?
2017-06-01 18:04:42.734228,4532.81818136,4.1212121208,4211.36363594,8.2424242416,3915.66666628,8.2424242416,3856.42424204,4108.84848444,4220.1212117,189.575757557,4387.03030259,362.66666663,4148.5151511,3709.09090872,4276.78787836,1891.63636345,4925.87878739,2942.54545425,3991.90909051,3577.21212085,4427.72727228,12.3636363624,4177.87878746,12.3636363624,4836.24242376,0.0,4385.48484805,3770.90909053,42.0,42.0,?
2017-06-01 18:04:42.741387,4540.03030258,4.1212121208,4212.90909049,8.2424242416,3918.24242385,8.2424242416,3861.06060567,4108.84848444,4226.8181814,189.575757557,4385.48484805,362.66666663,4151.09090868,3709.09090872,4287.09090866,1891.63636345,4931.54545405,2942.54545425,3999.12121172,3577.21212085,4432.87878744,12.3636363624,4177.87878746,12.3636363624,4842.93939346,0.0,4390.12121168,3770.90909053,42.0,42.0,?
2017-06-01 18:04:42.751058,4543.12121167,4.1212121208,4213.93939352,8.2424242416,3916.69696931,8.2424242416,3843.54545416,4108.84848444,4228.87878746,189.575757557,4387.54545411,362.66666663,4147.99999959,3709.09090872,4288.63636321,1891.63636345,4941.33333284,2942.54545425,3998.60606021,3577.21212085,4427.21212077,12.3636363624,4176.84848443,12.3636363624,4838.81818133,0.0,4390.12121168,3770.90909053,42.0,42.0,?
2017-06-01 18:04:42.757499,4530.7575753,4.1212121208,4210.84848443,8.2424242416,3911.54545415,8.2424242416,3851.27272689,4108.84848444,4229.39393897,189.575757557,4387.54545411,362.66666663,4150.06060565,3709.09090872,4278.33333291,1891.63636345,4945.96969648,2942.54545425,3992.42424203,3577.21212085,4430.81818138,12.3636363624,4177.87878746,12.3636363624,4836.75757527,0.0,4389.09090865,3770.90909053,42.0,42.0,?
2017-06-01 18:04:42.766532,4541.06060561,4.1212121208,4215.48484806,8.2424242416,3915.15151476,8.2424242416,3848.1818178,4108.84848444,4223.21212079,189.575757557,4387.54545411,362.66666663,4159.84848443,3709.09090872,4277.81818139,1891.63636345,4936.6969692,2942.54545425,3990.87878748,3577.21212085,4430.30302986,12.3636363624,4175.8181814,12.3636363624,4841.39393891,0.0,4387.03030259,3770.90909053,42.0,42.0,?
2017-06-01 18:04:42.773111,4536.93939349,4.1212121208,4214.96969655,8.2424242416,3915.15151476,8.2424242416,3828.09090871,4108.84848444,4211.87878746,189.575757557,4385.99999956,362.66666663,4160.36363595,3709.09090872,4290.69696927,1891.63636345,4941.33333284,2942.54545425,3997.57575718,3577.21212085,4426.18181774,12.3636363624,4175.8181814,12.3636363624,4840.36363588,0.0,4386.51515108,3770.90909053,42.0,42.0,?
2017-06-01 18:04:42.782322,4538.48484803,4.1212121208,4217.03030261,8.2424242416,3916.69696931,8.2424242416,3831.69696931,4108.84848444,4205.18181776,189.575757557,4381.87878744,362.66666663,4154.69696928,3709.09090872,4288.63636321,1891.63636345,4934.63636314,2942.54545425,3993.45454506,3577.21212085,4433.39393895,12.3636363624,4179.93939352,12.3636363624,4840.87878739,0.0,4383.9393935,3770.90909053,42.0,42.0,?
2017-06-01 18:04:42.788415,4543.12121167,4.1212121208,4215.48484806,8.2424242416,3916.69696931,8.2424242416,3846.63636325,4108.84848444,4214.45454503,189.575757557,4381.36363593,362.66666663,4155.72727231,3709.09090872,4279.36363594,1891.63636345,4908.36363587,2942.54545425,3989.84848445,3577.21212085,4430.81818138,12.3636363624,4179.42424201,12.3636363624,4836.75757527,0.0,4382.39393896,3770.90909053,42.0,42.0,?
2017-06-01 18:04:42.797463,4531.78787833,4.1212121208,4213.424242,8.2424242416,3913.60606021,8.2424242416,3837.87878749,4108.84848444,4226.8181814,189.575757557,4386.51515108,362.66666663,4160.36363595,3709.09090872,4287.60606018,1891.63636345,4916.0909086,2942.54545425,3998.60606021,3577.21212085,4430.30302986,12.3636363624,4177.36363595,12.3636363624,4839.84848436,0.0,4387.54545411,3770.90909053,42.0,42.0,?
2017-06-01 18:04:42.803874,4542.60606015,4.1212121208,4219.09090867,8.2424242416,3916.69696931,8.2424242416,3826.54545416,4108.84848444,4223.7272723,189.575757557,4389.60606017,362.66666663,4159.84848443,3709.09090872,4287.60606018,1891.63636345,4942.87878738,2942.54545425,3999.63636324,3577.21212085,4429.27272683,12.3636363624,4176.84848443,12.3636363624,4842.93939346,0.0,4388.57575714,3770.90909053,42.0,42.0,?
2017-06-01 18:04:42.812705,4541.57575712,4.1212121208,4213.93939352,8.2424242416,3913.60606021,8.2424242416,3845.09090871,4108.84848444,4221.15151473,189.575757557,4387.03030259,362.66666663,4159.84848443,3709.09090872,4278.84848442,1891.63636345,4945.96969648,2942.54545425,3999.12121172,3577.21212085,4427.72727228,12.3636363624,4176.84848443,12.3636363624,4836.75757527,0.0,4390.6363632,3770.90909053,42.0,42.0,?
2017-06-01 18:04:42.820284,4540.03030258,4.1212121208,4213.424242,8.2424242416,3914.63636324,8.2424242416,3849.72727234,4108.84848444,4223.21212079,189.575757557,4388.06060562,362.66666663,4157.27272686,3709.09090872,4280.39393897,1891.63636345,4930.51515102,2942.54545425,3998.09090869,3577.21212085,4430.81818138,12.3636363624,4177.36363595,12.3636363624,4838.30302982,0.0,4388.57575714,3770.90909053,42.0,42.0,?
2017-06-01 18:04:42.827425,4540.54545409,4.1212121208,4215.99999958,8.2424242416,3916.69696931,8.2424242416,3831.69696931,4108.84848444,4223.21212079,189.575757557,4391.66666623,362.66666663,4149.54545413,3709.09090872,4285.54545412,1891.63636345,4922.27272678,2942.54545425,3990.87878748,3577.21212085,4425.66666622,12.3636363624,4175.8181814,12.3636363624,4837.7878783,0.0,4381.87878744,3770.90909053,42.0,42.0,?
2017-06-01 18:04:42.836165,4529.72727227,4.1212121208,4212.90909049,8.2424242416,3912.57575718,8.2424242416,3842.51515113,4108.84848444,4227.33333291,189.575757557,4394.2424238,362.66666663,4149.54545413,3709.09090872,4289.15151472,1891.63636345,4926.90909042,2942.54545425,3991.90909051,3577.21212085,4430.30302986,12.3636363624,4176.84848443,12.3636363624,4839.33333285,0.0,4381.36363593,3770.90909053,42.0,42.0,?
2017-06-01 18:04:42.842406,4542.60606015,4.1212121208,4216.51515109,8.2424242416,3915.15151476,8.2424242416,3857.45454507,4108.84848444,4228.36363594,189.575757557,4396.30302986,362.66666663,4154.69696928,3709.09090872,4286.57575715,1891.63636345,4927.42424193,2942.54545425,3996.03030263,3577.21212085,4432.36363592,12.3636363624,4176.84848443,12.3636363624,4841.90909042,0.0,4384.45454502,3770.90909053,42.0,42.0,?
2017-06-01 18:04:42.851948,4539.51515106,4.1212121208,4213.93939352,8.2424242416,3915.15151476,8.2424242416,3848.1818178,4108.84848444,4230.93939352,189.575757557,4396.81818138,362.66666663,4157.27272686,3709.09090872,4285.0303026,1891.63636345,4926.90909042,2942.54545425,3999.63636324,3577.21212085,4427.21212077,12.3636363624,4175.8181814,12.3636363624,4837.7878783,0.0,4387.54545411,3770.90909053,42.0,42.0,?
2017-06-01 18:04:42.859377,4535.39393894,4.1212121208,4213.93939352,8.2424242416,3916.18181779,8.2424242416,3844.06060568,4108.84848444,4233.51515109,189.575757557,4398.87878744,362.66666663,4158.8181814,3709.09090872,4285.0303026,1891.63636345,4926.3939389,2942.54545425,3997.57575718,3577.21212085,4432.87878744,12.3636363624,4177.87878746,12.3636363624,4841.90909042,0.0,4387.54545411,3770.90909053,42.0,42.0,?
2017-06-01 18:04:42.867145,4543.12121167,4.1212121208,4217.54545412,8.2424242416,3917.72727234,8.2424242416,3844.57575719,4108.84848444,4236.09090867,189.575757557,4401.96969653,362.66666663,4160.87878746,3709.09090872,4289.15151472,1891.63636345,4924.33333284,2942.54545425,3990.36363596,3577.21212085,4427.72727228,12.3636363624,4179.42424201,12.3636363624,4842.42424194,0.0,4385.99999956,3770.90909053,42.0,42.0,?
2017-06-01 18:04:42.874478,4532.30302985,4.1212121208,4214.45454503,8.2424242416,3913.0909087,8.2424242416,3830.15151477,4108.84848444,4234.03030261,189.575757557,4400.9393935,362.66666663,4160.87878746,3709.09090872,4295.3333329,1891.63636345,4927.93939345,2942.54545425,3995.51515112,3577.21212085,4425.15151471,12.3636363624,4179.93939352,12.3636363624,4840.87878739,0.0,4385.99999956,3770.90909053,42.0,42.0,?
2017-06-01 18:04:42.884038,4543.63636318,4.1212121208,4218.57575715,8.2424242416,3916.69696931,8.2424242416,3830.15151477,4108.84848444,4224.24242382,189.575757557,4398.36363592,362.66666663,4156.24242383,3709.09090872,4285.54545412,1891.63636345,4932.57575708,2942.54545425,3997.06060566,3577.21212085,4431.84848441,12.3636363624,4178.39393898,12.3636363624,4844.484848,0.0,4382.39393896,3770.90909053,42.0,42.0,?
2017-06-01 18:04:42.890798,4543.12121167,4.1212121208,4213.93939352,8.2424242416,3916.69696931,8.2424242416,3859.51515113,4108.84848444,4228.36363594,189.575757557,4396.30302986,362.66666663,4146.45454504,3709.09090872,4280.90909048,1891.63636345,4932.57575708,2942.54545425,3994.9999996,3577.21212085,4430.81818138,12.3636363624,4176.33333292,12.3636363624,4840.36363588,0.0,4384.45454502,3770.90909053,42.0,42.0,?
2017-06-01 18:04:42.899455,4532.30302985,4.1212121208,4212.39393897,8.2424242416,3913.60606021,8.2424242416,3867.24242386,4108.84848444,4236.60606018,189.575757557,4394.2424238,362.66666663,4139.75757534,3709.09090872,4285.54545412,1891.63636345,4929.48484799,2942.54545425,3997.57575718,3577.21212085,4426.69696925,12.3636363624,4177.36363595,12.3636363624,4840.36363588,0.0,4390.12121168,3770.90909053,42.0,42.0,?
2017-06-01 18:04:42.906234,4542.09090864,4.1212121208,4218.06060564,8.2424242416,3916.18181779,8.2424242416,3849.21212083,4108.84848444,4229.39393897,189.575757557,4392.69696926,362.66666663,4140.27272686,3709.09090872,4278.84848442,1891.63636345,4927.42424193,2942.54545425,3994.9999996,3577.21212085,4424.63636319,12.3636363624,4178.39393898,12.3636363624,4840.36363588,0.0,4387.03030259,3770.90909053,42.0,42.0,?
2017-06-01 18:04:42.913735,4534.87878743,4.1212121208,4211.36363594,8.2424242416,3913.60606021,8.2424242416,3841.4848481,4108.84848444,4224.75757534,189.575757557,4390.6363632,362.66666663,4144.39393898,3709.09090872,4278.33333291,1891.63636345,4933.60606011,2942.54545425,3997.57575718,3577.21212085,4429.27272683,12.3636363624,4179.42424201,12.3636363624,4836.75757527,0.0,4385.48484805,3770.90909053,42.0,42.0,?
2017-06-01 18:04:42.921450,4538.99999955,4.1212121208,4213.93939352,8.2424242416,3914.12121173,8.2424242416,3836.84848446,4108.84848444,4222.18181776,189.575757557,4393.21212077,362.66666663,4147.99999959,3709.09090872,4291.21212078,1891.63636345,4935.66666617,2942.54545425,4006.84848445,3577.21212085,4432.36363592,12.3636363624,4178.39393898,12.3636363624,4840.36363588,0.0,4389.60606017,3770.90909053,42.0,42.0,?
2017-06-01 18:04:42.929114,4539.51515106,4.1212121208,4214.96969655,8.2424242416,3914.63636324,8.2424242416,3841.99999962,4108.84848444,4224.24242382,189.575757557,4397.33333289,362.66666663,4145.93939352,3709.09090872,4300.48484805,1891.63636345,4929.48484799,2942.54545425,4012.51515111,3577.21212085,4427.72727228,12.3636363624,4176.84848443,12.3636363624,4839.84848436,0.0,4391.66666623,3770.90909053,42.0,42.0,?
2017-06-01 18:04:42.936363,4531.78787833,4.1212121208,4212.39393897,8.2424242416,3915.15151476,8.2424242416,3852.81818143,4108.84848444,4235.57575715,189.575757557,4397.33333289,362.66666663,4145.93939352,3709.09090872,4295.3333329,1891.63636345,4925.87878739,2942.54545425,4011.9999996,3577.21212085,4429.78787834,12.3636363624,4178.39393898,12.3636363624,4838.81818133,0.0,4393.72727229,3770.90909053,42.0,42.0,?
2017-06-01 18:04:42.945205,4541.06060561,4.1212121208,4217.03030261,8.2424242416,3917.72727234,8.2424242416,3847.66666628,4108.84848444,4239.18181776,189.575757557,4394.75757532,362.66666663,4147.99999959,3709.09090872,4287.09090866,1891.63636345,4928.45454496,2942.54545425,4007.87878748,3577.21212085,4427.21212077,12.3636363624,4177.36363595,12.3636363624,4837.27272679,0.0,4396.81818138,3770.90909053,42.0,42.0,?
2017-06-01 18:04:42.952577,4534.36363591,4.1212121208,4214.45454503,8.2424242416,3913.0909087,8.2424242416,3851.7878784,4108.84848444,4237.1212117,189.575757557,4393.72727229,362.66666663,4145.42424201,3709.09090872,4289.15151472,1891.63636345,4940.30302981,2942.54545425,4009.42424202,3577.21212085,4423.60606016,12.3636363624,4175.30302989,12.3636363624,4835.21212073,0.0,4402.48484804,3770.90909053,42.0,42.0,?
2017-06-01 18:04:42.962243,4541.06060561,4.1212121208,4214.96969655,8.2424242416,3916.18181779,8.2424242416,3862.0909087,4108.84848444,4234.54545412,189.575757557,4396.81818138,362.66666663,4142.33333292,3709.09090872,4282.96969654,1891.63636345,4944.93939344,2942.54545425,4008.39393899,3577.21212085,4428.75757531,12.3636363624,4176.84848443,12.3636363624,4840.87878739,0.0,4403.51515107,3770.90909053,42.0,42.0,?
2017-06-01 18:04:42.968511,4546.21212076,4.1212121208,4214.45454503,8.2424242416,3917.72727234,8.2424242416,3853.84848446,4108.84848444,4231.45454503,189.575757557,4395.27272683,362.66666663,4148.5151511,3709.09090872,4277.30302988,1891.63636345,4938.24242375,2942.54545425,4006.33333293,3577.21212085,4429.78787834,12.3636363624,4178.39393898,12.3636363624,4838.30302982,0.0,4402.99999956,3770.90909053,42.0,42.0,?
2017-06-01 18:04:42.977237,4533.33333288,4.1212121208,4213.424242,8.2424242416,3914.12121173,8.2424242416,3839.93939356,4108.84848444,4229.39393897,189.575757557,4389.60606017,362.66666663,4157.27272686,3709.09090872,4290.18181775,1891.63636345,4939.78787829,2942.54545425,4010.45454505,3577.21212085,4429.78787834,12.3636363624,4178.90909049,12.3636363624,4838.81818133,0.0,4404.03030259,3770.90909053,42.0,42.0,?
2017-06-01 18:04:42.984318,4542.60606015,4.1212121208,4217.54545412,8.2424242416,3916.18181779,8.2424242416,3843.54545416,4108.84848444,4226.30302988,189.575757557,4391.15151471,362.66666663,4153.66666625,3709.09090872,4299.96969654,1891.63636345,4943.3939389,2942.54545425,4009.93939354,3577.21212085,4427.72727228,12.3636363624,4177.87878746,12.3636363624,4843.96969649,0.0,4395.27272683,3770.90909053,42.0,42.0,?
2017-06-01 18:04:42.991759,4538.48484803,4.1212121208,4211.36363594,8.2424242416,3914.63636324,8.2424242416,3863.12121173,4108.84848444,4231.96969655,189.575757557,4394.2424238,362.66666663,4147.99999959,3709.09090872,4299.45454502,1891.63636345,4949.57575708,2942.54545425,4010.96969657,3577.21212085,4426.18181774,12.3636363624,4177.36363595,12.3636363624,4839.84848436,0.0,4392.18181774,3770.90909053,42.0,42.0,?
2017-06-01 18:04:43.000232,4536.42424197,4.1212121208,4212.90909049,8.2424242416,3916.69696931,8.2424242416,3865.1818178,4108.84848444,4239.18181776,189.575757557,4392.18181774,362.66666663,4150.57575716,3709.09090872,4295.84848442,1891.63636345,4949.06060557,2942.54545425,4009.93939354,3577.21212085,4429.78787834,12.3636363624,4177.87878746,12.3636363624,4838.30302982,0.0,4396.81818138,3770.90909053,42.0,42.0,?
2017-06-01 18:04:43.011095,4540.03030258,4.1212121208,4215.48484806,8.2424242416,3917.21212082,8.2424242416,3851.7878784,4108.84848444,4239.69696927,189.575757557,4391.15151471,362.66666663,4148.5151511,3709.09090872,4291.7272723,1891.63636345,4939.78787829,2942.54545425,4004.27272687,3577.21212085,4428.2424238,12.3636363624,4176.33333292,12.3636363624,4838.30302982,0.0,4395.78787835,3770.90909053,42.0,42.0,?
2017-06-01 18:04:43.015499,4529.21212076,0.0,4209.8181814,8.2424242416,3912.06060567,8.2424242416,3845.09090871,4108.84848444,4236.60606018,189.575757557,4395.27272683,362.66666663,4143.87878746,3709.09090872,4285.54545412,1891.63636345,4934.63636314,2942.54545425,4006.84848445,3577.21212085,4428.2424238,12.3636363624,4176.33333292,12.3636363624,4839.84848436,0.0,4394.2424238,3770.90909053,42.0,42.0,?
2017-06-01 18:04:43.024255,4537.96969652,0.0,4214.45454503,8.2424242416,3917.72727234,8.2424242416,3831.1818178,4108.84848444,4228.36363594,189.575757557,4398.36363592,362.66666663,4141.8181814,3709.09090872,4274.7272723,1891.63636345,4927.42424193,2942.54545425,4005.3030299,3577.21212085,4426.69696925,12.3636363624,4176.84848443,12.3636363624,4840.87878739,0.0,4392.18181774,3770.90909053,42.0,42.0,?
2017-06-01 18:04:43.033429,4535.39393894,0.0,4214.96969655,8.2424242416,3918.24242385,8.2424242416,3830.15151477,4108.84848444,4227.84848443,189.575757557,4394.75757532,362.66666663,4143.36363595,3709.09090872,4281.424242,1891.63636345,4934.12121163,2942.54545425,4006.33333293,3577.21212085,4427.21212077,12.3636363624,4176.84848443,12.3636363624,4837.7878783,0.0,4396.81818138,3770.90909053,42.0,42.0,?
2017-06-01 18:04:43.038411,4536.42424197,0.0,4215.48484806,8.2424242416,3915.15151476,0.0,3856.93939355,4108.84848444,4235.06060564,189.575757557,4393.21212077,362.66666663,4147.99999959,3709.09090872,4296.36363593,1891.63636345,4946.48484799,2942.54545425,4012.51515111,3577.21212085,4428.75757531,12.3636363624,4177.87878746,12.3636363624,4841.39393891,0.0,4401.96969653,3770.90909053,42.0,42.0,?
2017-06-01 18:04:43.046392,4543.12121167,0.0,4215.99999958,8.2424242416,3916.69696931,0.0,3870.33333295,4104.72727232,4239.18181776,189.575757557,4397.33333289,362.66666663,4146.96969656,3709.09090872,4294.30302987,1891.63636345,4937.21212072,2942.54545425,4010.96969657,3577.21212085,4423.60606016,12.3636363624,4177.36363595,12.3636363624,4839.84848436,0.0,4398.36363592,3770.90909053,42.0,42.0,?
2017-06-01 18:04:43.054410,4530.7575753,0.0,4212.39393897,8.2424242416,3915.66666628,0.0,3858.99999961,4104.72727232,4236.09090867,181.333333315,4395.27272683,362.66666663,4140.78787837,3709.09090872,4289.66666624,1891.63636345,4936.6969692,2942.54545425,4011.48484808,3577.21212085,4429.78787834,12.3636363624,4177.36363595,12.3636363624,4836.75757527,0.0,4397.84848441,3770.90909053,42.0,42.0,?
2017-06-01 18:04:43.062552,4543.12121167,0.0,4218.57575715,8.2424242416,3917.21212082,0.0,3846.12121174,4104.72727232,4224.24242382,181.333333315,4390.6363632,375.030302993,4141.8181814,3709.09090872,4291.21212078,1891.63636345,4946.48484799,2942.54545425,4014.06060566,3577.21212085,4432.87878744,12.3636363624,4176.33333292,12.3636363624,4840.87878739,0.0,4402.48484804,3770.90909053,42.0,42.0,?
2017-06-01 18:04:43.069929,4543.63636318,0.0,4214.96969655,8.2424242416,3916.18181779,0.0,3849.21212083,4104.72727232,4222.18181776,181.333333315,4390.12121168,375.030302993,4147.99999959,3717.33333296,4290.69696927,1891.63636345,4942.36363587,2942.54545425,4016.63636323,3577.21212085,4425.66666622,12.3636363624,4175.8181814,12.3636363624,4839.33333285,0.0,4405.57575714,3770.90909053,42.0,42.0,?
2017-06-01 18:04:43.081072,4537.454545,0.0,4211.87878746,8.2424242416,3916.18181779,0.0,3847.15151477,4104.72727232,4227.84848443,181.333333315,4391.15151471,375.030302993,4149.03030262,3717.33333296,4288.63636321,1879.27272708,4936.6969692,2942.54545425,4016.63636323,3577.21212085,4427.21212077,12.3636363624,4177.87878746,12.3636363624,4837.7878783,0.0,4405.06060562,3770.90909053,42.0,42.0,?
2017-06-01 18:04:43.086162,4545.18181773,0.0,4218.57575715,8.2424242416,3917.72727234,0.0,3837.36363598,4104.72727232,4225.27272685,181.333333315,4390.6363632,375.030302993,4147.48484807,3717.33333296,4294.81818139,1879.27272708,4941.33333284,2946.66666637,4014.57575717,3577.21212085,4428.2424238,12.3636363624,4176.84848443,12.3636363624,4837.27272679,0.0,4406.60606017,3770.90909053,42.0,42.0,?
2017-06-01 18:04:43.093451,4534.87878743,0.0,4215.48484806,8.2424242416,3914.63636324,0.0,3847.66666628,4104.72727232,4225.78787837,181.333333315,4391.66666623,375.030302993,4152.12121171,3717.33333296,4302.0303026,1879.27272708,4948.54545405,2946.66666637,4018.18181778,3581.33333298,4430.30302986,12.3636363624,4174.27272686,12.3636363624,4839.33333285,0.0,4407.6363632,3770.90909053,42.0,42.0,?
2017-06-01 18:04:43.103489,4540.54545409,0.0,4214.96969655,8.2424242416,3918.75757537,0.0,3863.63636325,4104.72727232,4234.54545412,181.333333315,4393.21212077,375.030302993,4153.15151474,3717.33333296,4292.24242381,1879.27272708,4946.48484799,2946.66666637,4015.09090869,3581.33333298,4428.2424238,0.0,4174.27272686,12.3636363624,4843.45454497,0.0,4399.90909047,3770.90909053,42.0,42.0,?
2017-06-01 18:04:43.108534,4540.03030258,0.0,4215.48484806,8.2424242416,3918.75757537,0.0,3863.12121173,4104.72727232,4245.87878745,181.333333315,4394.2424238,375.030302993,4149.03030262,3717.33333296,4289.66666624,1879.27272708,4945.96969648,2946.66666637,4014.06060566,3581.33333298,4424.63636319,0.0,4177.87878746,8.2424242416,4838.81818133,0.0,4399.39393895,3770.90909053,42.0,42.0,?
2017-06-01 18:04:43.116421,4533.8484844,0.0,4215.48484806,8.2424242416,3915.66666628,0.0,3853.84848446,4104.72727232,4246.39393897,181.333333315,4396.81818138,375.030302993,4148.5151511,3717.33333296,4294.30302987,1879.27272708,4942.36363587,2946.66666637,4017.66666626,3581.33333298,4429.78787834,0.0,4179.42424201,8.2424242416,4839.33333285,12.3636363624,4405.57575714,3770.90909053,42.0,42.0,?
2017-06-01 18:04:43.125447,4543.63636318,0.0,4214.96969655,8.2424242416,3916.18181779,0.0,3854.87878749,4104.72727232,4240.7272723,181.333333315,4397.84848441,375.030302993,4146.45454504,3717.33333296,4281.424242,1879.27272708,4933.60606011,2946.66666637,4011.9999996,3581.33333298,4427.72727228,0.0,4175.30302989,8.2424242416,4841.39393891,12.3636363624,4404.54545411,3770.90909053,42.0,42.0,?
2017-06-01 18:04:43.133220,4534.87878743,0.0,4210.84848443,8.2424242416,3911.54545415,0.0,3860.54545416,4104.72727232,4242.27272685,181.333333315,4394.75757532,375.030302993,4147.99999959,3717.33333296,4279.87878745,1879.27272708,4941.84848435,2946.66666637,4013.03030263,3581.33333298,4427.21212077,12.3636363624,4175.8181814,8.2424242416,4838.81818133,12.3636363624,4403.51515107,3770.90909053,42.0,42.0,?
2017-06-01 18:04:43.141098,4543.63636318,0.0,4219.09090867,8.2424242416,3915.66666628,0.0,3844.06060568,4104.72727232,4238.66666624,181.333333315,4394.75757532,375.030302993,4152.12121171,3717.33333296,4292.75757533,1879.27272708,4944.42424193,2946.66666637,4014.06060566,3581.33333298,4432.36363592,12.3636363624,4179.42424201,12.3636363624,4838.81818133,12.3636363624,4398.87878744,3770.90909053,42.0,42.0,?
2017-06-01 18:04:43.148482,4545.18181773,0.0,4218.06060564,8.2424242416,3918.75757537,0.0,3836.33333295,4104.72727232,4231.96969655,181.333333315,4391.15151471,375.030302993,4146.96969656,3717.33333296,4288.12121169,1879.27272708,4934.63636314,2946.66666637,4010.96969657,3581.33333298,4428.2424238,12.3636363624,4177.36363595,12.3636363624,4835.21212073,12.3636363624,4392.69696926,3770.90909053,42.0,42.0,?
2017-06-01 18:04:43.155818,4530.7575753,0.0,4209.8181814,8.2424242416,3913.60606021,0.0,3856.93939355,4104.72727232,4229.90909049,181.333333315,4385.48484805,375.030302993,4143.87878746,3717.33333296,4280.90909048,1879.27272708,4934.12121163,2946.66666637,4016.63636323,3581.33333298,4428.2424238,12.3636363624,4174.78787837,12.3636363624,4837.27272679,12.3636363624,4396.30302986,3770.90909053,42.0,42.0,?
2017-06-01 18:04:43.165531,4542.09090864,0.0,4212.39393897,8.2424242416,3914.63636324,0.0,3868.7878784,4104.72727232,4234.54545412,181.333333315,4389.60606017,375.030302993,4149.54545413,3717.33333296,4288.12121169,1879.27272708,4944.42424193,2946.66666637,4027.96969657,3581.33333298,4427.72727228,12.3636363624,4176.84848443,12.3636363624,4841.39393891,12.3636363624,4404.03030259,3770.90909053,42.0,42.0,?
2017-06-01 18:04:43.173477,4536.42424197,0.0,4211.87878746,8.2424242416,3914.63636324,0.0,3860.03030264,4104.72727232,4242.78787836,181.333333315,4392.69696926,375.030302993,4155.2121208,3717.33333296,4297.39393896,1879.27272708,4956.27272678,2946.66666637,4034.15151475,3581.33333298,4427.72727228,12.3636363624,4179.42424201,12.3636363624,4840.87878739,12.3636363624,4410.21212077,3770.90909053,42.0,42.0,?
2017-06-01 18:04:43.180236,4534.36363591,0.0,4215.99999958,8.2424242416,3916.18181779,0.0,3857.45454507,4104.72727232,4236.60606018,181.333333315,4389.60606017,375.030302993,4154.18181777,3717.33333296,4294.30302987,1879.27272708,4949.06060557,2946.66666637,4027.96969657,3581.33333298,4430.30302986,12.3636363624,4177.87878746,12.3636363624,4843.45454497,12.3636363624,4406.09090865,3770.90909053,42.0,42.0,?
2017-06-01 18:04:43.187964,4539.51515106,0.0,4215.99999958,8.2424242416,3912.57575718,0.0,3865.1818178,4104.72727232,4231.96969655,181.333333315,4390.12121168,375.030302993,4149.03030262,3717.33333296,4293.27272684,1879.27272708,4939.78787829,2946.66666637,4025.90909051,3581.33333298,4425.66666622,12.3636363624,4175.30302989,12.3636363624,4839.33333285,12.3636363624,4400.9393935,3770.90909053,42.0,42.0,?
2017-06-01 18:04:43.195302,4534.36363591,0.0,4212.39393897,8.2424242416,3910.51515112,0.0,3867.75757537,4104.72727232,4242.78787836,181.333333315,4392.18181774,375.030302993,4149.54545413,3717.33333296,4294.81818139,1879.27272708,4945.45454496,2946.66666637,4030.03030263,3581.33333298,4425.66666622,12.3636363624,4177.87878746,12.3636363624,4837.27272679,12.3636363624,4406.09090865,3770.90909053,42.0,42.0,?
2017-06-01 18:04:43.205217,4540.54545409,0.0,4217.03030261,8.2424242416,3918.24242385,0.0,3857.45454507,4104.72727232,4239.18181776,181.333333315,4394.2424238,375.030302993,4149.03030262,3717.33333296,4289.15151472,1879.27272708,4945.96969648,2946.66666637,4025.90909051,3581.33333298,4427.72727228,12.3636363624,4178.90909049,12.3636363624,4838.81818133,12.3636363624,4407.12121168,3770.90909053,42.0,42.0,?
2017-06-01 18:04:43.210434,4534.36363591,0.0,4212.90909049,8.2424242416,3916.18181779,0.0,3848.69696931,4104.72727232,4231.45454503,181.333333315,4391.66666623,375.030302993,4144.90909049,3717.33333296,4292.75757533,1879.27272708,4944.93939344,2946.66666637,4026.93939354,3581.33333298,4427.21212077,12.3636363624,4175.8181814,12.3636363624,4836.75757527,12.3636363624,4404.03030259,3770.90909053,42.0,42.0,?
2017-06-01 18:04:43.218438,4538.99999955,0.0,4214.96969655,8.2424242416,3918.24242385,0.0,3851.7878784,4104.72727232,4235.57575715,181.333333315,4390.12121168,375.030302993,4146.45454504,3717.33333296,4292.24242381,1879.27272708,4945.96969648,2946.66666637,4027.96969657,3581.33333298,4428.75757531,12.3636363624,4175.8181814,12.3636363624,4839.33333285,12.3636363624,4398.87878744,3770.90909053,42.0,42.0,?
2017-06-01 18:04:43.227079,4543.63636318,0.0,4218.57575715,8.2424242416,3920.30302991,0.0,3867.75757537,4104.72727232,4240.7272723,181.333333315,4391.66666623,375.030302993,4150.57575716,3717.33333296,4285.54545412,1879.27272708,4944.93939344,2946.66666637,4025.90909051,3581.33333298,4426.69696925,12.3636363624,4178.90909049,12.3636363624,4838.30302982,12.3636363624,4397.33333289,3770.90909053,42.0,42.0,?
2017-06-01 18:04:43.234377,4530.7575753,0.0,4213.424242,8.2424242416,3912.06060567,0.0,3874.96969658,4104.72727232,4241.75757533,181.333333315,4390.6363632,375.030302993,4153.66666625,3717.33333296,4297.90909048,1879.27272708,4943.90909041,2946.66666637,4032.6060602,3581.33333298,4428.75757531,12.3636363624,4177.87878746,12.3636363624,4838.30302982,12.3636363624,4400.42424198,3770.90909053,42.0,42.0,?
2017-06-01 18:04:43.241865,4545.69696924,0.0,4217.54545412,8.2424242416,3914.12121173,0.0,3858.4848481,4104.72727232,4239.18181776,181.333333315,4390.6363632,375.030302993,4157.78787837,3717.33333296,4308.21212078,1879.27272708,4944.42424193,2946.66666637,4033.12121172,3581.33333298,4427.72727228,12.3636363624,4175.30302989,12.3636363624,4840.36363588,12.3636363624,4396.30302986,3770.90909053,42.0,42.0,?
2017-06-01 18:04:43.251619,4544.66666621,0.0,4213.93939352,8.2424242416,3916.18181779,0.0,3856.93939355,4104.72727232,4238.66666624,181.333333315,4390.6363632,375.030302993,4161.39393898,3717.33333296,4299.96969654,1879.27272708,4950.0909086,2946.66666637,4028.48484808,3581.33333298,4427.72727228,12.3636363624,4177.87878746,12.3636363624,4837.27272679,12.3636363624,4394.2424238,3770.90909053,42.0,42.0,?
2017-06-01 18:04:43.258147,4536.42424197,0.0,4211.36363594,8.2424242416,3915.15151476,0.0,3867.24242386,4104.72727232,4236.09090867,181.333333315,4388.57575714,375.030302993,4162.93939352,3717.33333296,4290.18181775,1879.27272708,4951.63636314,2946.66666637,4028.48484808,3581.33333298,4431.33333289,12.3636363624,4180.96969655,12.3636363624,4839.84848436,12.3636363624,4396.81818138,3770.90909053,42.0,42.0,?
2017-06-01 18:04:43.267474,4542.60606015,0.0,4215.99999958,8.2424242416,3914.12121173,0.0,3854.87878749,4104.72727232,4235.06060564,181.333333315,4387.54545411,375.030302993,4161.39393898,3717.33333296,4295.3333329,1879.27272708,4950.0909086,2946.66666637,4030.54545414,3581.33333298,4427.21212077,12.3636363624,4176.84848443,12.3636363624,4840.36363588,12.3636363624,4401.45454501,3770.90909053,42.0,42.0,?
2017-06-01 18:04:43.273983,4533.33333288,0.0,4213.93939352,8.2424242416,3913.60606021,0.0,3842.51515113,4104.72727232,4236.60606018,181.333333315,4389.09090865,375.030302993,4157.78787837,3717.33333296,4302.54545412,1879.27272708,4954.21212072,2946.66666637,4035.69696929,3581.33333298,4426.18181774,12.3636363624,4174.27272686,12.3636363624,4837.27272679,12.3636363624,4409.69696926,3770.90909053,42.0,42.0,?
2017-06-01 18:04:43.283515,4541.57575712,0.0,4215.99999958,8.2424242416,3917.72727234,0.0,3847.15151477,4104.72727232,4230.93939352,181.333333315,4390.12121168,375.030302993,4152.63636322,3717.33333296,4291.7272723,1879.27272708,4948.03030254,2946.66666637,4031.57575717,3581.33333298,4425.66666622,12.3636363624,4174.78787837,12.3636363624,4837.7878783,12.3636363624,4410.21212077,3770.90909053,42.0,42.0,?
2017-06-01 18:04:43.288918,4542.60606015,0.0,4214.45454503,8.2424242416,3915.15151476,0.0,3861.06060567,4104.72727232,4230.93939352,181.333333315,4388.57575714,375.030302993,4151.60606019,3717.33333296,4287.09090866,1879.27272708,4941.84848435,2946.66666637,4024.87878748,3581.33333298,4425.15151471,12.3636363624,4175.8181814,12.3636363624,4839.84848436,12.3636363624,4406.09090865,3770.90909053,42.0,42.0,?
2017-06-01 18:04:43.296462,4537.454545,0.0,4217.03030261,8.2424242416,3915.15151476,0.0,3868.7878784,4104.72727232,4235.57575715,181.333333315,4388.57575714,375.030302993,4156.75757534,3717.33333296,4296.87878745,1879.27272708,4944.93939344,2946.66666637,4026.42424202,3581.33333298,4430.81818138,12.3636363624,4177.36363595,12.3636363624,4843.96969649,12.3636363624,4406.60606017,3770.90909053,42.0,42.0,?
2017-06-01 18:04:43.305657,4543.63636318,0.0,4220.1212117,8.2424242416,3917.72727234,0.0,3862.0909087,4104.72727232,4234.03030261,181.333333315,4389.09090865,375.030302993,4158.30302989,3717.33333296,4292.75757533,1879.27272708,4948.03030254,2946.66666637,4029.51515111,3581.33333298,4430.30302986,12.3636363624,4176.84848443,12.3636363624,4842.93939346,12.3636363624,4406.09090865,3770.90909053,42.0,42.0,?
2017-06-01 18:04:43.312818,4532.81818136,0.0,4210.84848443,8.2424242416,3911.54545415,0.0,3856.42424204,4104.72727232,4234.03030261,181.333333315,4386.51515108,375.030302993,4158.30302989,3717.33333296,4288.12121169,1879.27272708,4949.06060557,2946.66666637,4031.57575717,3581.33333298,4428.2424238,12.3636363624,4176.33333292,12.3636363624,4840.87878739,12.3636363624,4408.15151471,3770.90909053,42.0,42.0,?
2017-06-01 18:04:43.322497,4542.60606015,0.0,4213.93939352,8.2424242416,3914.63636324,0.0,3857.45454507,4104.72727232,4236.60606018,181.333333315,4388.57575714,375.030302993,4161.90909049,3717.33333296,4299.96969654,1879.27272708,4940.30302981,2946.66666637,4026.42424202,3581.33333298,4429.27272683,12.3636363624,4176.33333292,12.3636363624,4843.45454497,12.3636363624,4409.69696926,3770.90909053,42.0,42.0,?
2017-06-01 18:04:43.329204,4544.1515147,0.0,4216.51515109,8.2424242416,3916.69696931,0.0,3858.4848481,4104.72727232,4241.24242382,181.333333315,4391.66666623,375.030302993,4164.48484807,3717.33333296,4308.7272723,1879.27272708,4939.27272678,2946.66666637,4022.81818142,3581.33333298,4429.78787834,12.3636363624,4175.30302989,12.3636363624,4839.84848436,12.3636363624,4409.18181774,3770.90909053,42.0,42.0,?
2017-06-01 18:04:43.335903,4532.30302985,0.0,4212.39393897,8.2424242416,3912.57575718,0.0,3845.09090871,4104.72727232,4237.63636321,181.333333315,4393.21212077,375.030302993,4162.93939352,3717.33333296,4299.45454502,1879.27272708,4946.99999951,2946.66666637,4022.81818142,3581.33333298,4432.36363592,12.3636363624,4175.8181814,12.3636363624,4839.33333285,12.3636363624,4407.12121168,3770.90909053,42.0,42.0,?
2017-06-01 18:04:43.343869,4540.54545409,0.0,4213.424242,8.2424242416,3914.12121173,0.0,3837.87878749,4104.72727232,4225.78787837,181.333333315,4391.66666623,375.030302993,4156.24242383,3717.33333296,4288.63636321,1879.27272708,4942.36363587,2946.66666637,4019.21212081,3581.33333298,4426.69696925,12.3636363624,4177.36363595,12.3636363624,4838.30302982,12.3636363624,4402.48484804,3770.90909053,42.0,42.0,?
2017-06-01 18:04:43.351470,4532.30302985,0.0,4211.36363594,8.2424242416,3914.12121173,0.0,3864.66666628,4104.72727232,4232.48484806,181.333333315,4387.03030259,375.030302993,4151.60606019,3717.33333296,4287.09090866,1879.27272708,4939.27272678,2946.66666637,4023.33333293,3581.33333298,4428.2424238,12.3636363624,4180.45454504,12.3636363624,4835.72727224,12.3636363624,4402.48484804,3770.90909053,42.0,42.0,?
2017-06-01 18:04:43.360167,4535.39393894,0.0,4214.45454503,8.2424242416,3916.69696931,0.0,3879.0909087,4104.72727232,4243.30302988,181.333333315,4387.03030259,375.030302993,4156.24242383,3717.33333296,4285.0303026,1879.27272708,4943.3939389,2946.66666637,4023.33333293,3581.33333298,4433.39393895,12.3636363624,4179.93939352,12.3636363624,4840.36363588,12.3636363624,4402.48484804,3770.90909053,42.0,42.0,?
2017-06-01 18:04:43.367375,4540.54545409,0.0,4214.45454503,8.2424242416,3916.69696931,0.0,3867.24242386,4104.72727232,4242.27272685,181.333333315,4390.6363632,375.030302993,4165.5151511,3717.33333296,4292.24242381,1879.27272708,4951.63636314,2946.66666637,4025.90909051,3581.33333298,4427.21212077,12.3636363624,4177.36363595,12.3636363624,4841.39393891,12.3636363624,4408.15151471,3770.90909053,42.0,42.0,?
2017-06-01 18:04:43.374419,4533.8484844,0.0,4214.96969655,8.2424242416,3914.63636324,0.0,3865.1818178,4104.72727232,4241.24242382,181.333333315,4390.12121168,375.030302993,4170.15151473,3717.33333296,4306.66666624,1879.27272708,4956.78787829,2946.66666637,4037.75757535,3581.33333298,4429.27272683,12.3636363624,4179.93939352,12.3636363624,4839.84848436,12.3636363624,4419.48484804,3770.90909053,42.0,42.0,?
2017-06-01 18:04:43.384977,4543.12121167,0.0,4218.57575715,8.2424242416,3915.66666628,0.0,3861.06060567,4104.72727232,4239.69696927,181.333333315,4389.09090865,375.030302993,4166.54545413,3717.33333296,4304.09090866,1879.27272708,4945.45454496,2946.66666637,4040.33333293,3581.33333298,4431.33333289,12.3636363624,4178.39393898,12.3636363624,4840.87878739,12.3636363624,4422.06060562,3770.90909053,42.0,42.0,?
2017-06-01 18:04:43.391853,4536.42424197,0.0,4211.36363594,8.2424242416,3912.57575718,0.0,3847.15151477,4104.72727232,4240.21212079,181.333333315,4388.57575714,375.030302993,4165.5151511,3717.33333296,4302.54545412,1879.27272708,4942.36363587,2946.66666637,4040.33333293,3581.33333298,4428.2424238,12.3636363624,4174.78787837,12.3636363624,4840.36363588,12.3636363624,4421.03030259,3770.90909053,42.0,42.0,?
2017-06-01 18:04:43.398527,4538.99999955,0.0,4214.45454503,8.2424242416,3916.69696931,0.0,3851.27272689,4104.72727232,4240.21212079,181.333333315,4388.06060562,375.030302993,4167.06060564,3717.33333296,4304.60606018,1879.27272708,4952.66666617,2946.66666637,4033.12121172,3581.33333298,4429.78787834,12.3636363624,4176.84848443,12.3636363624,4842.93939346,12.3636363624,4411.2424238,3770.90909053,42.0,42.0,?
2017-06-01 18:04:43.408612,4541.57575712,0.0,4216.51515109,8.2424242416,3917.72727234,0.0,3867.75757537,4104.72727232,4235.06060564,181.333333315,4386.51515108,375.030302993,4159.84848443,3717.33333296,4293.27272684,1879.27272708,4953.6969692,2946.66666637,4017.15151475,3581.33333298,4428.75757531,12.3636363624,4176.33333292,12.3636363624,4839.33333285,12.3636363624,4395.78787835,3770.90909053,42.0,42.0,?
2017-06-01 18:04:43.414220,4528.69696924,0.0,4212.39393897,8.2424242416,3911.03030264,0.0,3865.69696931,4104.72727232,4231.45454503,181.333333315,4384.96969653,375.030302993,4154.18181777,3717.33333296,4284.51515109,1879.27272708,4945.45454496,2946.66666637,4014.06060566,3581.33333298,4428.75757531,12.3636363624,4173.75757534,12.3636363624,4837.27272679,12.3636363624,4395.78787835,3770.90909053,42.0,42.0,?
2017-06-01 18:04:43.422354,4540.03030258,0.0,4217.03030261,8.2424242416,3917.21212082,0.0,3851.7878784,4104.72727232,4231.45454503,181.333333315,4387.03030259,375.030302993,4158.30302989,3717.33333296,4287.09090866,1879.27272708,4943.90909041,2946.66666637,4023.33333293,3581.33333298,4427.21212077,12.3636363624,4175.8181814,12.3636363624,4840.36363588,12.3636363624,4401.96969653,3770.90909053,42.0,42.0,?
2017-06-01 18:04:43.429952,4536.42424197,0.0,4211.87878746,8.2424242416,3918.24242385,0.0,3856.42424204,4104.72727232,4232.99999958,181.333333315,4389.09090865,375.030302993,4165.5151511,3717.33333296,4294.81818139,1879.27272708,4953.6969692,2946.66666637,4036.21212081,3581.33333298,4424.63636319,12.3636363624,4177.87878746,12.3636363624,4840.36363588,12.3636363624,4408.15151471,3770.90909053,42.0,42.0,?
2017-06-01 18:04:43.437471,4533.8484844,0.0,4211.87878746,8.2424242416,3913.60606021,0.0,3863.63636325,4104.72727232,4228.87878746,181.333333315,4384.96969653,375.030302993,4164.48484807,3717.33333296,4296.36363593,1879.27272708,4954.72727223,2946.66666637,4039.3030299,3581.33333298,4426.69696925,12.3636363624,4175.8181814,12.3636363624,4842.42424194,12.3636363624,4414.33333289,3770.90909053,42.0,42.0,?
2017-06-01 18:04:43.446237,4539.51515106,0.0,4218.06060564,8.2424242416,3913.60606021,0.0,3853.33333295,4104.72727232,4229.90909049,181.333333315,4382.90909047,375.030302993,4157.27272686,3717.33333296,4293.27272684,1879.27272708,4939.78787829,2946.66666637,4032.6060602,3581.33333298,4426.18181774,12.3636363624,4175.30302989,12.3636363624,4839.84848436,12.3636363624,4414.33333289,3770.90909053,42.0,42.0,?
2017-06-01 18:04:43.452496,4532.30302985,0.0,4213.424242,8.2424242416,3913.60606021,0.0,3841.99999962,4104.72727232,4236.09090867,181.333333315,4387.03030259,375.030302993,4152.12121171,3717.33333296,4287.09090866,1879.27272708,4936.18181769,2946.66666637,4028.48484808,3581.33333298,4431.84848441,12.3636363624,4178.39393898,12.3636363624,4839.33333285,12.3636363624,4410.21212077,3770.90909053,42.0,42.0,?
2017-06-01 18:04:43.460918,4544.1515147,0.0,4215.48484806,8.2424242416,3917.21212082,0.0,3842.51515113,4104.72727232,4227.84848443,181.333333315,4385.48484805,375.030302993,4154.18181777,3717.33333296,4277.81818139,1879.27272708,4942.87878738,2946.66666637,4024.36363596,3581.33333298,4430.30302986,12.3636363624,4176.84848443,12.3636363624,4840.36363588,12.3636363624,4406.09090865,3770.90909053,42.0,42.0,?
2017-06-01 18:04:43.469673,4541.06060561,0.0,4215.48484806,8.2424242416,3916.18181779,0.0,3854.36363598,4104.72727232,4225.78787837,181.333333315,4378.27272683,375.030302993,4161.39393898,3717.33333296,4285.0303026,1879.27272708,4946.99999951,2946.66666637,4023.33333293,3581.33333298,4424.63636319,12.3636363624,4175.30302989,12.3636363624,4837.27272679,12.3636363624,4405.06060562,3770.90909053,42.0,42.0,?
2017-06-01 18:04:43.482959,4536.93939349,0.0,4217.03030261,8.2424242416,3916.69696931,0.0,3858.4848481,4104.72727232,4234.54545412,181.333333315,4382.39393896,375.030302993,4166.54545413,3717.33333296,4296.36363593,1879.27272708,4940.81818132,2946.66666637,4022.3030299,3581.33333298,4429.27272683,12.3636363624,4176.33333292,12.3636363624,4840.36363588,12.3636363624,4399.90909047,3770.90909053,42.0,42.0,?
2017-06-01 18:04:43.485545,4545.69696924,0.0,4220.1212117,8.2424242416,3917.72727234,0.0,3853.84848446,4104.72727232,4235.57575715,181.333333315,4388.57575714,375.030302993,4166.03030261,3717.33333296,4296.36363593,1879.27272708,4932.06060557,2946.66666637,4017.66666626,3581.33333298,4429.78787834,12.3636363624,4174.78787837,12.3636363624,4840.36363588,12.3636363624,4397.84848441,3770.90909053,42.0,42.0,?
2017-06-01 18:04:43.494174,4534.87878743,0.0,4214.45454503,8.2424242416,3911.03030264,0.0,3856.93939355,4104.72727232,4229.39393897,181.333333315,4382.39393896,375.030302993,4165.5151511,3717.33333296,4294.30302987,1879.27272708,4939.27272678,2946.66666637,4018.6969693,3581.33333298,4431.84848441,12.3636363624,4174.78787837,12.3636363624,4840.87878739,12.3636363624,4400.9393935,3770.90909053,42.0,42.0,?
2017-06-01 18:04:43.499596,4543.12121167,0.0,4214.96969655,8.2424242416,3915.15151476,0.0,3853.33333295,4104.72727232,4225.27272685,181.333333315,4381.87878744,375.030302993,4163.96969655,3717.33333296,4286.57575715,1879.27272708,4937.72727223,2946.66666637,4019.72727233,3581.33333298,4429.78787834,12.3636363624,4176.84848443,12.3636363624,4846.54545406,12.3636363624,4399.90909047,3770.90909053,42.0,42.0,?
2017-06-01 18:04:43.507699,4541.57575712,0.0,4214.45454503,8.2424242416,3916.18181779,0.0,3850.75757537,4104.72727232,4233.51515109,181.333333315,4388.57575714,375.030302993,4162.42424201,3717.33333296,4286.57575715,1879.27272708,4921.24242375,2946.66666637,4027.96969657,3581.33333298,4423.60606016,12.3636363624,4176.33333292,12.3636363624,4842.42424194,12.3636363624,4407.6363632,3770.90909053,42.0,42.0,?
2017-06-01 18:04:43.517134,4533.8484844,0.0,4214.45454503,8.2424242416,3913.60606021,0.0,3852.81818143,4104.72727232,4237.1212117,181.333333315,4389.09090865,375.030302993,4161.39393898,3717.33333296,4294.81818139,1879.27272708,4921.24242375,2946.66666637,4035.18181778,3581.33333298,4427.72727228,12.3636363624,4176.84848443,12.3636363624,4839.33333285,12.3636363624,4412.78787835,3770.90909053,42.0,42.0,?
2017-06-01 18:04:43.524228,4542.60606015,8.2424242416,4217.54545412,8.2424242416,3913.60606021,0.0,3843.03030265,4104.72727232,4230.93939352,181.333333315,4388.06060562,375.030302993,4161.39393898,3717.33333296,4294.30302987,1879.27272708,4938.75757526,2946.66666637,4030.54545414,3581.33333298,4427.21212077,12.3636363624,4175.8181814,12.3636363624,4840.87878739,12.3636363624,4404.54545411,3770.90909053,42.0,42.0,?
2017-06-01 18:04:43.531965,4533.8484844,8.2424242416,4212.90909049,8.2424242416,3912.06060567,0.0,3837.36363598,4104.72727232,4232.99999958,181.333333315,4385.99999956,375.030302993,4160.36363595,3717.33333296,4293.78787836,1879.27272708,4950.60606011,2946.66666637,4033.63636323,3581.33333298,4425.15151471,12.3636363624,4175.30302989,12.3636363624,4839.33333285,12.3636363624,4404.03030259,3770.90909053,42.0,42.0,?
2017-06-01 18:04:43.539434,4539.51515106,8.2424242416,4216.51515109,8.2424242416,3917.21212082,0.0,3843.54545416,4104.72727232,4231.96969655,181.333333315,4383.42424199,375.030302993,4154.69696928,3717.33333296,4291.7272723,1879.27272708,4935.66666617,2946.66666637,4034.66666626,3581.33333298,4429.27272683,12.3636363624,4176.84848443,12.3636363624,4838.30302982,12.3636363624,4405.57575714,3762.66666629,42.0,42.0,?
2017-06-01 18:04:43.546446,4542.60606015,8.2424242416,4218.06060564,8.2424242416,3915.66666628,12.3636363624,3854.36363598,4104.72727232,4225.78787837,181.333333315,4380.3333329,375.030302993,4151.09090868,3717.33333296,4283.99999957,1879.27272708,4927.93939345,2946.66666637,4027.45454505,3581.33333298,4427.21212077,12.3636363624,4177.87878746,12.3636363624,4838.30302982,12.3636363624,4401.96969653,3762.66666629,42.0,42.0,?
2017-06-01 18:04:43.554398,4536.42424197,8.2424242416,4216.51515109,8.2424242416,3912.57575718,12.3636363624,3859.51515113,4117.09090868,4227.84848443,181.333333315,4380.3333329,375.030302993,4158.30302989,3717.33333296,4287.09090866,1879.27272708,4942.36363587,2946.66666637,4029.51515111,3581.33333298,4425.66666622,12.3636363624,4177.87878746,12.3636363624,4841.90909042,12.3636363624,4401.96969653,3762.66666629,42.0,42.0,?
2017-06-01 18:04:43.565757,4546.21212076,8.2424242416,4216.51515109,8.2424242416,3916.69696931,12.3636363624,3856.93939355,4117.09090868,4234.54545412,181.333333315,4382.90909047,375.030302993,4163.45454504,3717.33333296,4298.42424199,1879.27272708,4944.93939344,2946.66666637,4036.72727232,3581.33333298,4426.18181774,12.3636363624,4175.8181814,12.3636363624,4842.42424194,12.3636363624,4406.60606017,3762.66666629,42.0,42.0,?
2017-06-01 18:04:43.571182,4535.90909046,8.2424242416,4210.84848443,8.2424242416,3914.63636324,12.3636363624,3855.39393901,4117.09090868,4240.7272723,181.333333315,4385.48484805,366.787878751,4165.5151511,3717.33333296,4302.54545412,1879.27272708,4943.90909041,2946.66666637,4044.96969657,3581.33333298,4428.75757531,12.3636363624,4177.36363595,12.3636363624,4838.81818133,12.3636363624,4413.30302986,3762.66666629,42.0,42.0,?
2017-06-01 18:04:43.579277,4541.06060561,8.2424242416,4215.48484806,8.2424242416,3915.66666628,12.3636363624,3840.45454507,4117.09090868,4230.424242,181.333333315,4388.06060562,366.787878751,4167.57575716,3717.33333296,4295.3333329,1879.27272708,4945.45454496,2946.66666637,4042.9090905,3581.33333298,4427.72727228,12.3636363624,4179.93939352,12.3636363624,4840.87878739,12.3636363624,4411.2424238,3762.66666629,42.0,42.0,?
2017-06-01 18:04:43.585669,4547.24242379,8.2424242416,4215.48484806,8.2424242416,3915.66666628,12.3636363624,3835.30302992,4117.09090868,4219.60606018,181.333333315,4382.90909047,366.787878751,4161.39393898,3717.33333296,4295.3333329,1879.27272708,4947.51515102,2946.66666637,4034.66666626,3581.33333298,4427.72727228,12.3636363624,4176.84848443,12.3636363624,4839.84848436,12.3636363624,4405.06060562,3762.66666629,42.0,42.0,?
2017-06-01 18:04:43.595223,4533.8484844,8.2424242416,4211.36363594,8.2424242416,3912.57575718,12.3636363624,3860.54545416,4117.09090868,4226.30302988,181.333333315,4379.30302987,366.787878751,4158.30302989,3717.33333296,4298.42424199,1879.27272708,4944.93939344,2921.93939365,4032.09090869,3581.33333298,4433.90909047,12.3636363624,4174.78787837,12.3636363624,4839.33333285,12.3636363624,4406.09090865,3762.66666629,42.0,42.0,?
2017-06-01 18:04:43.601735,4541.06060561,8.2424242416,4218.06060564,8.2424242416,3915.66666628,12.3636363624,3870.84848446,4117.09090868,4227.84848443,181.333333315,4381.36363593,366.787878751,4159.84848443,3717.33333296,4283.99999957,1879.27272708,4940.30302981,2921.93939365,4030.03030263,3581.33333298,4426.69696925,12.3636363624,4175.8181814,12.3636363624,4840.87878739,12.3636363624,4404.03030259,3762.66666629,42.0,42.0,?
2017-06-01 18:04:43.609777,4538.48484803,8.2424242416,4215.48484806,8.2424242416,3913.60606021,12.3636363624,3859.51515113,4117.09090868,4225.27272685,181.333333315,4382.90909047,366.787878751,4157.27272686,3717.33333296,4279.36363594,1879.27272708,4941.84848435,2921.93939365,4032.6060602,3581.33333298,4423.60606016,0.0,4176.33333292,12.3636363624,4838.81818133,12.3636363624,4402.48484804,3762.66666629,42.0,42.0,?
2017-06-01 18:04:43.618247,4540.54545409,8.2424242416,4214.96969655,8.2424242416,3915.66666628,12.3636363624,3852.30302992,4117.09090868,4226.8181814,181.333333315,4385.99999956,366.787878751,4156.75757534,3717.33333296,4290.69696927,1879.27272708,4936.6969692,2921.93939365,4033.63636323,3581.33333298,4431.33333289,0.0,4177.36363595,8.2424242416,4840.36363588,12.3636363624,4401.45454501,3762.66666629,42.0,42.0,?
2017-06-01 18:04:43.625487,4543.12121167,8.2424242416,4215.99999958,8.2424242416,3916.69696931,12.3636363624,3851.27272689,4117.09090868,4228.36363594,181.333333315,4387.03030259,366.787878751,4162.93939352,3717.33333296,4290.18181775,1879.27272708,4938.24242375,2921.93939365,4031.57575717,3581.33333298,4428.75757531,0.0,4176.84848443,8.2424242416,4839.84848436,0.0,4404.54545411,3762.66666629,42.0,42.0,?
2017-06-01 18:04:43.634376,4533.33333288,8.2424242416,4213.424242,8.2424242416,3913.0909087,12.3636363624,3848.1818178,4117.09090868,4228.36363594,181.333333315,4384.45454502,366.787878751,4166.03030261,3717.33333296,4285.54545412,1879.27272708,4938.24242375,2921.93939365,4032.09090869,3589.57575722,4428.75757531,0.0,4176.84848443,8.2424242416,4840.36363588,0.0,4410.72727229,3762.66666629,42.0,42.0,?
2017-06-01 18:04:43.641264,4544.66666621,8.2424242416,4217.54545412,8.2424242416,3915.66666628,12.3636363624,3841.99999962,4117.09090868,4227.33333291,181.333333315,4382.39393896,366.787878751,4160.87878746,3717.33333296,4289.66666624,1879.27272708,4917.12121163,2921.93939365,4030.03030263,3589.57575722,4428.75757531,12.3636363624,4174.78787837,8.2424242416,4841.39393891,0.0,4407.12121168,3762.66666629,42.0,42.0,?
2017-06-01 18:04:43.649185,4537.96969652,8.2424242416,4212.39393897,8.2424242416,3915.66666628,12.3636363624,3851.27272689,4117.09090868,4226.30302988,181.333333315,4377.75757532,366.787878751,4158.30302989,3717.33333296,4298.42424199,1879.27272708,4926.90909042,2921.93939365,4034.15151475,3589.57575722,4427.72727228,12.3636363624,4174.27272686,8.2424242416,4838.30302982,0.0,4402.99999956,3762.66666629,42.0,42.0,?
2017-06-01 18:04:43.657361,4536.42424197,8.2424242416,4212.90909049,8.2424242416,3917.21212082,12.3636363624,3865.1818178,4117.09090868,4225.27272685,181.333333315,4378.27272683,366.787878751,4168.60606019,3717.33333296,4300.99999957,1879.27272708,4963.48484799,2921.93939365,4038.78787838,3589.57575722,4431.33333289,12.3636363624,4175.30302989,8.2424242416,4841.39393891,0.0,4413.30302986,3762.66666629,42.0,42.0,?
2017-06-01 18:04:43.665283,4545.69696924,8.2424242416,4216.51515109,8.2424242416,3917.21212082,12.3636363624,3858.99999961,4117.09090868,4232.99999958,181.333333315,4385.48484805,366.787878751,4178.39393898,3717.33333296,4302.0303026,1879.27272708,4968.12121162,2921.93939365,4042.9090905,3589.57575722,4429.27272683,12.3636363624,4175.8181814,8.2424242416,4841.39393891,0.0,4426.18181774,3762.66666629,42.0,42.0,?
2017-06-01 18:04:43.671498,4533.33333288,8.2424242416,4211.36363594,8.2424242416,3909.48484809,12.3636363624,3844.57575719,4117.09090868,4238.15151473,181.333333315,4385.48484805,366.787878751,4173.24242383,3717.33333296,4303.06060563,1879.27272708,4952.66666617,2921.93939365,4042.9090905,3589.57575722,4430.30302986,12.3636363624,4176.33333292,8.2424242416,4839.84848436,0.0,4420.51515107,3762.66666629,42.0,42.0,?
2017-06-01 18:04:43.681313,4540.03030258,8.2424242416,4215.48484806,8.2424242416,3915.15151476,12.3636363624,3843.03030265,4117.09090868,4224.24242382,181.333333315,4381.36363593,366.787878751,4164.48484807,3717.33333296,4291.21212078,1879.27272708,4939.78787829,2921.93939365,4026.42424202,3589.57575722,4431.33333289,12.3636363624,4176.33333292,8.2424242416,4842.42424194,0.0,4401.96969653,3762.66666629,42.0,42.0,?
2017-06-01 18:04:43.688133,4540.54545409,8.2424242416,4214.96969655,8.2424242416,3918.24242385,12.3636363624,3852.30302992,4117.09090868,4220.63636321,181.333333315,4379.30302987,366.787878751,4165.5151511,3717.33333296,4288.63636321,1879.27272708,4935.66666617,2921.93939365,4019.72727233,3589.57575722,4426.18181774,12.3636363624,4177.36363595,8.2424242416,4839.33333285,0.0,4402.48484804,3762.66666629,42.0,42.0,?
2017-06-01 18:04:43.695416,4533.8484844,8.2424242416,4213.93939352,8.2424242416,3914.12121173,12.3636363624,3853.33333295,4117.09090868,4226.8181814,181.333333315,4380.84848441,366.787878751,4167.57575716,3717.33333296,4295.84848442,1879.27272708,4940.81818132,2921.93939365,4030.03030263,3589.57575722,4426.18181774,12.3636363624,4180.45454504,8.2424242416,4838.81818133,0.0,4412.78787835,3762.66666629,42.0,42.0,?
2017-06-01 18:04:43.705445,4539.51515106,8.2424242416,4217.03030261,8.2424242416,3914.63636324,12.3636363624,3855.39393901,4117.09090868,4225.78787837,181.333333315,4383.9393935,366.787878751,4163.96969655,3717.33333296,4292.75757533,1879.27272708,4940.81818132,2921.93939365,4031.57575717,3589.57575722,4427.21212077,12.3636363624,4178.39393898,8.2424242416,4837.7878783,0.0,4409.18181774,3762.66666629,42.0,42.0,?
2017-06-01 18:04:43.712050,4533.33333288,8.2424242416,4213.93939352,8.2424242416,3914.12121173,12.3636363624,3863.63636325,4117.09090868,4223.7272723,181.333333315,4384.45454502,366.787878751,4164.48484807,3717.33333296,4290.18181775,1879.27272708,4940.81818132,2921.93939365,4029.51515111,3589.57575722,4430.30302986,12.3636363624,4175.8181814,8.2424242416,4836.75757527,0.0,4406.60606017,3762.66666629,42.0,42.0,?
2017-06-01 18:04:43.718433,4544.1515147,8.2424242416,4218.06060564,8.2424242416,3917.72727234,12.3636363624,3857.45454507,4117.09090868,4223.7272723,181.333333315,4383.42424199,366.787878751,4164.48484807,3717.33333296,4289.66666624,1879.27272708,4946.48484799,2921.93939365,4025.39393899,3589.57575722,4430.81818138,12.3636363624,4174.27272686,8.2424242416,4840.87878739,0.0,4408.15151471,3762.66666629,42.0,42.0,?
2017-06-01 18:04:43.727511,4541.57575712,8.2424242416,4217.03030261,8.2424242416,3917.21212082,12.3636363624,3849.72727234,4117.09090868,4225.78787837,181.333333315,4381.36363593,366.787878751,4161.90909049,3717.33333296,4291.7272723,1879.27272708,4948.54545405,2921.93939365,4030.54545414,3589.57575722,4429.27272683,12.3636363624,4179.93939352,8.2424242416,4840.87878739,0.0,4412.78787835,3762.66666629,42.0,42.0,?
2017-06-01 18:04:43.735105,4532.30302985,8.2424242416,4215.48484806,8.2424242416,3916.18181779,12.3636363624,3848.69696931,4117.09090868,4224.24242382,181.333333315,4378.27272683,366.787878751,4162.42424201,3717.33333296,4294.30302987,1879.27272708,4948.54545405,2921.93939365,4030.54545414,3589.57575722,4429.27272683,12.3636363624,4179.93939352,8.2424242416,4840.87878739,0.0,4412.78787835,3762.66666629,42.0,42.0,?
2017-06-01 18:04:43.742470,4541.06060561,8.2424242416,4217.03030261,8.2424242416,3917.72727234,12.3636363624,3848.1818178,4117.09090868,4219.09090867,181.333333315,4377.75757532,366.787878751,4162.42424201,3717.33333296,4287.09090866,1879.27272708,4944.42424193,2921.93939365,4035.69696929,3589.57575722,4432.36363592,12.3636363624,4175.8181814,8.2424242416,4839.33333285,0.0,4417.42424198,3762.66666629,42.0,42.0,?
2017-06-01 18:04:43.750834,4533.8484844,8.2424242416,4212.39393897,8.2424242416,3913.0909087,12.3636363624,3860.03030264,4117.09090868,4226.30302988,181.333333315,4381.36363593,366.787878751,4163.96969655,3717.33333296,4286.57575715,1879.27272708,4950.60606011,2921.93939365,4036.21212081,3589.57575722,4433.90909047,12.3636363624,4174.78787837,8.2424242416,4840.87878739,0.0,4423.09090865,3762.66666629,42.0,42.0,?
2017-06-01 18:04:43.758351,4541.57575712,8.2424242416,4217.54545412,8.2424242416,3915.15151476,12.3636363624,3866.21212083,4117.09090868,4224.24242382,181.333333315,4382.90909047,366.787878751,4163.96969655,3717.33333296,4293.27272684,1879.27272708,4948.54545405,2921.93939365,4030.54545414,3589.57575722,4433.39393895,12.3636363624,4178.90909049,8.2424242416,4842.42424194,0.0,4419.99999956,3762.66666629,42.0,42.0,?
2017-06-01 18:04:43.766032,4541.57575712,8.2424242416,4217.03030261,8.2424242416,3916.69696931,12.3636363624,3856.42424204,4117.09090868,4209.30302988,181.333333315,4376.21212077,366.787878751,4158.8181814,3717.33333296,4290.69696927,1879.27272708,4930.51515102,2921.93939365,4026.42424202,3589.57575722,4429.78787834,12.3636363624,4177.87878746,8.2424242416,4838.30302982,0.0,4414.84848441,3762.66666629,42.0,42.0,?
2017-06-01 18:04:43.773500,4528.18181773,8.2424242416,4211.87878746,8.2424242416,3916.18181779,12.3636363624,3849.72727234,4117.09090868,4210.84848443,181.333333315,4374.15151471,366.787878751,4159.33333292,3717.33333296,4283.48484806,1879.27272708,4919.6969692,2921.93939365,4031.06060566,3589.57575722,4431.84848441,12.3636363624,4176.33333292,8.2424242416,4841.39393891,0.0,4423.60606016,3762.66666629,42.0,42.0,?
2017-06-01 18:04:43.785159,4541.57575712,8.2424242416,4215.99999958,8.2424242416,3917.72727234,12.3636363624,3841.99999962,4117.09090868,4222.69696927,181.333333315,4377.75757532,366.787878751,4162.42424201,3717.33333296,4287.60606018,1879.27272708,4929.99999951,2921.93939365,4031.57575717,3589.57575722,4427.72727228,12.3636363624,4176.84848443,8.2424242416,4842.42424194,0.0,4430.81818138,3762.66666629,42.0,42.0,?
2017-06-01 18:04:43.791584,4538.48484803,8.2424242416,4213.93939352,8.2424242416,3911.54545415,12.3636363624,3847.66666628,4117.09090868,4228.87878746,181.333333315,4378.27272683,366.787878751,4161.90909049,3717.33333296,4296.36363593,1879.27272708,4948.03030254,2921.93939365,4029.51515111,3589.57575722,4426.18181774,12.3636363624,4177.36363595,8.2424242416,4836.75757527,0.0,4427.21212077,3762.66666629,42.0,42.0,?
2017-06-01 18:04:43.798281,4538.99999955,8.2424242416,4214.96969655,8.2424242416,3915.66666628,12.3636363624,3864.15151477,4117.09090868,4227.33333291,181.333333315,4379.30302987,366.787878751,4160.87878746,3717.33333296,4288.63636321,1879.27272708,4942.36363587,2921.93939365,4022.3030299,3589.57575722,4430.30302986,12.3636363624,4175.30302989,8.2424242416,4841.39393891,0.0,4421.03030259,3762.66666629,42.0,42.0,?
2017-06-01 18:04:43.804910,4540.54545409,8.2424242416,4214.96969655,8.2424242416,3917.72727234,12.3636363624,3865.69696931,4117.09090868,4227.33333291,181.333333315,4383.42424199,366.787878751,4157.27272686,3717.33333296,4277.81818139,1879.27272708,4930.51515102,2921.93939365,4017.66666626,3589.57575722,4426.69696925,12.3636363624,4172.21212079,8.2424242416,4842.93939346,0.0,4426.18181774,3762.66666629,42.0,42.0,?
2017-06-01 18:04:43.812428,4532.30302985,8.2424242416,4213.424242,8.2424242416,3911.03030264,12.3636363624,3853.33333295,4117.09090868,4227.84848443,181.333333315,4382.39393896,366.787878751,4154.69696928,3717.33333296,4276.78787836,1879.27272708,4939.27272678,2921.93939365,4025.39393899,3589.57575722,4427.72727228,12.3636363624,4173.75757534,8.2424242416,4840.87878739,0.0,4439.06060562,3762.66666629,42.0,42.0,?
2017-06-01 18:04:43.820479,4545.18181773,8.2424242416,4217.54545412,8.2424242416,3915.15151476,12.3636363624,3845.60606022,4117.09090868,4219.09090867,181.333333315,4376.72727229,366.787878751,4157.27272686,3717.33333296,4278.84848442,1879.27272708,4939.78787829,2921.93939365,4029.51515111,3589.57575722,4428.2424238,12.3636363624,4175.8181814,8.2424242416,4842.42424194,0.0,4441.12121168,3762.66666629,42.0,42.0,?
2017-06-01 18:04:43.828926,4536.93939349,8.2424242416,4208.78787837,8.2424242416,3916.69696931,12.3636363624,3854.87878749,4117.09090868,4214.96969655,181.333333315,4375.18181774,366.787878751,4159.84848443,3717.33333296,4287.09090866,1879.27272708,4932.06060557,2921.93939365,4029.51515111,3589.57575722,4426.18181774,12.3636363624,4173.75757534,8.2424242416,4841.90909042,0.0,4438.03030259,3762.66666629,42.0,42.0,?
2017-06-01 18:04:43.837478,4534.87878743,8.2424242416,4209.8181814,8.2424242416,3916.18181779,12.3636363624,3850.75757537,4117.09090868,4214.45454503,181.333333315,4377.75757532,366.787878751,4158.30302989,3717.33333296,4283.99999957,1879.27272708,4932.06060557,2921.93939365,4026.42424202,3589.57575722,4428.2424238,12.3636363624,4172.21212079,8.2424242416,4842.93939346,0.0,4436.48484804,3762.66666629,42.0,42.0,?
2017-06-01 18:04:43.843822,4542.60606015,8.2424242416,4218.06060564,8.2424242416,3915.66666628,12.3636363624,3830.15151477,4117.09090868,4214.45454503,181.333333315,4377.75757532,366.787878751,4159.84848443,3717.33333296,4276.78787836,1879.27272708,4939.78787829,2921.93939365,4028.48484808,3589.57575722,4429.27272683,12.3636363624,4172.21212079,8.2424242416,4840.36363588,0.0,4442.15151471,3762.66666629,42.0,42.0,?
2017-06-01 18:04:43.851757,4533.33333288,8.2424242416,4215.99999958,8.2424242416,3912.57575718,12.3636363624,3829.63636325,4117.09090868,4215.99999958,181.333333315,4377.75757532,366.787878751,4171.69696928,3717.33333296,4291.21212078,1879.27272708,4946.48484799,2921.93939365,4037.24242384,3589.57575722,4433.39393895,12.3636363624,4174.27272686,8.2424242416,4838.30302982,0.0,4450.39393895,3762.66666629,42.0,42.0,?
2017-06-01 18:04:43.861105,4543.12121167,8.2424242416,4215.99999958,8.2424242416,3917.21212082,12.3636363624,3852.81818143,4117.09090868,4214.45454503,181.333333315,4380.3333329,366.787878751,4178.39393898,3717.33333296,4296.87878745,1879.27272708,4941.84848435,2921.93939365,4036.21212081,3589.57575722,4430.81818138,12.3636363624,4174.78787837,8.2424242416,4840.87878739,0.0,4444.72727228,3762.66666629,42.0,42.0,?
2017-06-01 18:04:43.867859,4541.57575712,8.2424242416,4212.39393897,8.2424242416,3916.18181779,12.3636363624,3875.99999961,4117.09090868,4219.09090867,181.333333315,4379.30302987,366.787878751,4169.63636322,3717.33333296,4285.54545412,1879.27272708,4939.78787829,2921.93939365,4035.18181778,3589.57575722,4426.69696925,12.3636363624,4175.30302989,8.2424242416,4839.84848436,0.0,4440.60606016,3762.66666629,42.0,42.0,?
2017-06-01 18:04:43.875707,4537.96969652,8.2424242416,4214.96969655,8.2424242416,3913.60606021,12.3636363624,3870.84848446,4117.09090868,4225.27272685,181.333333315,4379.30302987,366.787878751,4162.93939352,3717.33333296,4279.36363594,1879.27272708,4944.93939344,2921.93939365,4034.15151475,3589.57575722,4430.81818138,12.3636363624,4176.33333292,8.2424242416,4841.39393891,0.0,4439.57575713,3762.66666629,42.0,42.0,?
2017-06-01 18:04:43.885229,4541.57575712,8.2424242416,4217.54545412,8.2424242416,3914.63636324,12.3636363624,3856.93939355,4117.09090868,4225.78787837,181.333333315,4380.84848441,366.787878751,4164.48484807,3717.33333296,4278.84848442,1879.27272708,4946.48484799,2921.93939365,4031.06060566,3589.57575722,4429.78787834,12.3636363624,4174.78787837,8.2424242416,4841.39393891,0.0,4435.45454501,3762.66666629,42.0,42.0,?
2017-06-01 18:04:43.891645,4531.78787833,8.2424242416,4213.424242,8.2424242416,3914.63636324,12.3636363624,3854.36363598,4117.09090868,4220.1212117,181.333333315,4376.72727229,366.787878751,4162.93939352,3717.33333296,4285.0303026,1879.27272708,4937.21212072,2921.93939365,4039.3030299,3589.57575722,4429.78787834,12.3636363624,4174.78787837,8.2424242416,4841.39393891,0.0,4438.03030259,3762.66666629,42.0,42.0,?
2017-06-01 18:04:43.900478,4541.06060561,8.2424242416,4218.06060564,8.2424242416,3919.27272688,12.3636363624,3850.24242386,4117.09090868,4215.48484806,181.333333315,4375.69696926,366.787878751,4157.27272686,3717.33333296,4285.54545412,1879.27272708,4924.33333284,2921.93939365,4042.9090905,3589.57575722,4429.27272683,12.3636363624,4174.27272686,8.2424242416,4842.42424194,0.0,4443.69696925,3762.66666629,42.0,42.0,?
2017-06-01 18:04:43.906924,4538.48484803,8.2424242416,4214.45454503,8.2424242416,3915.15151476,12.3636363624,3857.45454507,4117.09090868,4224.75757534,181.333333315,4379.30302987,366.787878751,4156.75757534,3717.33333296,4279.36363594,1879.27272708,4935.66666617,2921.93939365,4038.27272687,3589.57575722,4428.75757531,12.3636363624,4173.24242383,8.2424242416,4838.81818133,0.0,4444.21212077,3762.66666629,42.0,42.0,?
2017-06-01 18:04:43.916561,4533.33333288,8.2424242416,4211.87878746,8.2424242416,3913.0909087,12.3636363624,3869.81818143,4117.09090868,4229.39393897,181.333333315,4379.30302987,366.787878751,4157.78787837,3717.33333296,4277.81818139,1879.27272708,4948.03030254,2921.93939365,4032.09090869,3589.57575722,4430.81818138,12.3636363624,4174.27272686,8.2424242416,4840.87878739,0.0,4441.12121168,3762.66666629,42.0,42.0,?
2017-06-01 18:04:43.924434,4542.60606015,8.2424242416,4217.03030261,8.2424242416,3917.72727234,12.3636363624,3864.66666628,4117.09090868,4222.69696927,181.333333315,4382.39393896,366.787878751,4156.24242383,3717.33333296,4282.96969654,1879.27272708,4936.18181769,2921.93939365,4026.93939354,3589.57575722,4425.15151471,12.3636363624,4175.30302989,8.2424242416,4840.87878739,0.0,4437.51515107,3762.66666629,42.0,42.0,?
2017-06-01 18:04:43.930461,4533.33333288,8.2424242416,4213.424242,8.2424242416,3913.0909087,12.3636363624,3854.36363598,4117.09090868,4225.78787837,181.333333315,4386.51515108,366.787878751,4157.78787837,3717.33333296,4290.69696927,1879.27272708,4936.18181769,2921.93939365,4035.69696929,3589.57575722,4426.69696925,12.3636363624,4176.33333292,8.2424242416,4838.30302982,0.0,4438.5454541,3762.66666629,42.0,42.0,?
2017-06-01 18:04:43.939223,4542.09090864,8.2424242416,4215.99999958,8.2424242416,3914.63636324,12.3636363624,3853.84848446,4117.09090868,4225.78787837,181.333333315,4384.96969653,366.787878751,4159.33333292,3717.33333296,4288.12121169,1879.27272708,4945.96969648,2921.93939365,4039.81818141,3589.57575722,4429.78787834,12.3636363624,4176.33333292,8.2424242416,4841.39393891,0.0,4437.51515107,3762.66666629,42.0,42.0,?
2017-06-01 18:04:43.945447,4543.12121167,8.2424242416,4214.45454503,8.2424242416,3915.66666628,12.3636363624,3854.36363598,4117.09090868,4218.06060564,181.333333315,4378.78787835,366.787878751,4160.36363595,3717.33333296,4284.51515109,1879.27272708,4944.42424193,2921.93939365,4037.75757535,3589.57575722,4425.66666622,12.3636363624,4175.8181814,8.2424242416,4838.81818133,0.0,4435.96969653,3762.66666629,42.0,42.0,?
2017-06-01 18:04:43.953430,4532.81818136,8.2424242416,4211.36363594,8.2424242416,3914.12121173,12.3636363624,3842.51515113,4117.09090868,4218.57575715,181.333333315,4375.18181774,366.787878751,4162.93939352,3717.33333296,4288.63636321,1879.27272708,4940.81818132,2921.93939365,4043.42424202,3589.57575722,4425.66666622,12.3636363624,4176.33333292,8.2424242416,4838.81818133,0.0,4438.03030259,3762.66666629,42.0,42.0,?
2017-06-01 18:04:43.962107,4541.57575712,8.2424242416,4215.99999958,8.2424242416,3916.18181779,12.3636363624,3845.60606022,4117.09090868,4225.78787837,181.333333315,4375.69696926,366.787878751,4164.48484807,3717.33333296,4288.12121169,1879.27272708,4941.33333284,2921.93939365,4052.18181778,3589.57575722,4425.15151471,12.3636363624,4174.27272686,8.2424242416,4839.33333285,0.0,4443.69696925,3762.66666629,42.0,42.0,?
2017-06-01 18:04:43.969941,4536.93939349,8.2424242416,4215.48484806,8.2424242416,3914.12121173,12.3636363624,3866.72727234,4117.09090868,4228.87878746,181.333333315,4377.2424238,366.787878751,4165.5151511,3717.33333296,4287.60606018,1879.27272708,4940.81818132,2921.93939365,4051.15151475,3589.57575722,4428.2424238,12.3636363624,4173.24242383,8.2424242416,4836.24242376,0.0,4447.30302986,3762.66666629,42.0,42.0,?
2017-06-01 18:04:43.977878,4543.63636318,8.2424242416,4217.54545412,8.2424242416,3916.69696931,12.3636363624,3865.1818178,4117.09090868,4221.15151473,181.333333315,4377.75757532,366.787878751,4161.39393898,3717.33333296,4281.93939351,1879.27272708,4938.75757526,2921.93939365,4038.78787838,3589.57575722,4431.33333289,12.3636363624,4174.27272686,8.2424242416,4837.7878783,0.0,4440.60606016,3762.66666629,42.0,42.0,?
2017-06-01 18:04:43.985038,4543.63636318,8.2424242416,4215.99999958,8.2424242416,3915.66666628,12.3636363624,3854.87878749,4117.09090868,4224.24242382,181.333333315,4377.2424238,366.787878751,4159.33333292,3717.33333296,4277.81818139,1879.27272708,4945.45454496,2921.93939365,4042.9090905,3589.57575722,4429.27272683,12.3636363624,4173.75757534,8.2424242416,4838.30302982,0.0,4440.60606016,3762.66666629,42.0,42.0,?
2017-06-01 18:04:43.993006,4533.8484844,8.2424242416,4214.96969655,8.2424242416,3913.0909087,12.3636363624,3867.24242386,4117.09090868,4235.57575715,181.333333315,4380.84848441,366.787878751,4165.5151511,3717.33333296,4285.54545412,1879.27272708,4944.93939344,2921.93939365,4057.33333293,3589.57575722,4429.78787834,12.3636363624,4172.72727231,8.2424242416,4839.84848436,0.0,4447.30302986,3762.66666629,42.0,42.0,?
2017-06-01 18:04:44.003390,4545.69696924,8.2424242416,4218.06060564,8.2424242416,3916.18181779,12.3636363624,3866.72727234,4117.09090868,4231.45454503,181.333333315,4387.03030259,366.787878751,4166.03030261,3717.33333296,4290.18181775,1879.27272708,4933.60606011,2921.93939365,4052.18181778,3589.57575722,4427.21212077,12.3636363624,4172.72727231,8.2424242416,4841.39393891,0.0,4441.12121168,3762.66666629,42.0,42.0,?
2017-06-01 18:04:44.009305,4537.454545,8.2424242416,4210.33333291,8.2424242416,3913.60606021,12.3636363624,3848.1818178,4117.09090868,4226.30302988,181.333333315,4386.51515108,366.787878751,4162.93939352,3717.33333296,4288.12121169,1879.27272708,4936.18181769,2921.93939365,4047.54545414,3589.57575722,4427.72727228,12.3636363624,4173.75757534,8.2424242416,4841.90909042,0.0,4437.51515107,3762.66666629,42.0,42.0,?
2017-06-01 18:04:44.017664,4537.96969652,8.2424242416,4213.93939352,8.2424242416,3914.63636324,12.3636363624,3845.09090871,4117.09090868,4225.78787837,181.333333315,4387.54545411,366.787878751,4163.45454504,3717.33333296,4282.96969654,1879.27272708,4932.06060557,2921.93939365,4051.66666626,3589.57575722,4432.36363592,12.3636363624,4173.24242383,8.2424242416,4842.42424194,0.0,4443.69696925,3762.66666629,42.0,42.0,?
2017-06-01 18:04:44.025227,4543.63636318,0.0,4216.51515109,8.2424242416,3915.15151476,12.3636363624,3863.63636325,4117.09090868,4225.27272685,181.333333315,4384.96969653,366.787878751,4164.48484807,3717.33333296,4284.51515109,1879.27272708,4925.87878739,2921.93939365,4057.33333293,3589.57575722,4428.2424238,12.3636363624,4174.78787837,8.2424242416,4837.27272679,0.0,4451.93939349,3762.66666629,42.0,42.0,?
2017-06-01 18:04:44.031416,4531.27272682,0.0,4210.33333291,0.0,3912.06060567,12.3636363624,3877.54545416,4117.09090868,4223.7272723,181.333333315,4376.72727229,366.787878751,4164.99999958,3717.33333296,4290.69696927,1879.27272708,4948.03030254,2921.93939365,4060.42424202,3589.57575722,4428.2424238,12.3636363624,4177.36363595,8.2424242416,4838.30302982,0.0,4449.87878743,3762.66666629,42.0,42.0,?
2017-06-01 18:04:44.040128,4538.99999955,0.0,4214.96969655,0.0,3916.18181779,12.3636363624,3862.0909087,4117.09090868,4223.21212079,181.333333315,4380.84848441,366.787878751,4165.5151511,3717.33333296,4294.30302987,1879.27272708,4965.54545405,2921.93939365,4057.33333293,3589.57575722,4429.27272683,12.3636363624,4173.24242383,8.2424242416,4841.39393891,0.0,4441.63636319,3758.54545417,42.0,42.0,?
2017-06-01 18:04:44.049443,4536.93939349,0.0,4214.96969655,0.0,3916.18181779,0.0,3849.21212083,4117.09090868,4225.78787837,181.333333315,4389.09090865,366.787878751,4167.57575716,3717.33333296,4299.45454502,1879.27272708,4959.87878738,2921.93939365,4062.48484808,3589.57575722,4430.81818138,12.3636363624,4169.63636322,8.2424242416,4838.81818133,0.0,4447.81818137,3758.54545417,42.0,42.0,?
2017-06-01 18:04:44.056262,4538.48484803,0.0,4214.45454503,0.0,3916.18181779,0.0,3855.39393901,4112.96969656,4227.84848443,181.333333315,4383.9393935,366.787878751,4169.63636322,3717.33333296,4296.36363593,1879.27272708,4955.75757526,2921.93939365,4069.69696929,3589.57575722,4432.36363592,12.3636363624,4175.30302989,8.2424242416,4838.81818133,0.0,4456.57575713,3758.54545417,42.0,42.0,?
2017-06-01 18:04:44.064068,4543.63636318,0.0,4217.03030261,0.0,3916.18181779,0.0,3860.54545416,4112.96969656,4230.424242,193.696969678,4376.21212077,366.787878751,4167.57575716,3717.33333296,4294.30302987,1879.27272708,4959.36363587,2921.93939365,4068.66666626,3589.57575722,4427.21212077,12.3636363624,4177.87878746,8.2424242416,4838.30302982,0.0,4451.93939349,3758.54545417,42.0,42.0,?
2017-06-01 18:04:44.070434,4533.33333288,0.0,4213.424242,0.0,3914.12121173,0.0,3864.15151477,4112.96969656,4232.48484806,193.696969678,4379.81818138,370.909090872,4163.96969655,3717.33333296,4298.93939351,1879.27272708,4946.48484799,2921.93939365,4064.54545414,3589.57575722,4428.2424238,12.3636363624,4175.30302989,8.2424242416,4838.81818133,0.0,4451.42424198,3758.54545417,42.0,42.0,?
2017-06-01 18:04:44.080070,4543.12121167,0.0,4215.99999958,0.0,3918.24242385,0.0,3868.7878784,4112.96969656,4229.90909049,193.696969678,4383.9393935,370.909090872,4161.90909049,3717.33333296,4294.30302987,1879.27272708,4929.48484799,2921.93939365,4056.81818141,3589.57575722,4429.78787834,12.3636363624,4173.75757534,8.2424242416,4840.87878739,0.0,4449.87878743,3758.54545417,42.0,42.0,?
2017-06-01 18:04:44.087225,4540.03030258,0.0,4216.51515109,0.0,3916.18181779,0.0,3874.45454507,4112.96969656,4232.48484806,193.696969678,4377.2424238,370.909090872,4159.84848443,3717.33333296,4289.66666624,1883.39393921,4943.90909041,2921.93939365,4055.78787838,3589.57575722,4428.2424238,12.3636363624,4173.75757534,8.2424242416,4837.27272679,0.0,4442.15151471,3758.54545417,42.0,42.0,?
2017-06-01 18:04:44.094467,4535.39393894,0.0,4217.03030261,0.0,3914.12121173,0.0,3869.30302992,4112.96969656,4232.48484806,193.696969678,4380.3333329,370.909090872,4161.90909049,3717.33333296,4291.7272723,1883.39393921,4957.30302981,2913.69696941,4058.36363596,3589.57575722,4431.84848441,12.3636363624,4173.75757534,8.2424242416,4839.33333285,0.0,4436.99999956,3758.54545417,42.0,42.0,?
2017-06-01 18:04:44.101651,4542.60606015,0.0,4216.51515109,0.0,3916.69696931,0.0,3852.81818143,4112.96969656,4225.78787837,193.696969678,4389.09090865,370.909090872,4163.96969655,3717.33333296,4290.18181775,1883.39393921,4944.42424193,2913.69696941,4051.66666626,3610.18181782,4430.30302986,12.3636363624,4171.69696928,8.2424242416,4839.84848436,0.0,4435.45454501,3758.54545417,42.0,42.0,?
2017-06-01 18:04:44.111381,4531.27272682,0.0,4212.90909049,0.0,3913.60606021,0.0,3851.27272689,4112.96969656,4227.84848443,193.696969678,4388.57575714,370.909090872,4168.60606019,3717.33333296,4298.42424199,1883.39393921,4945.45454496,2913.69696941,4051.15151475,3610.18181782,4429.27272683,12.3636363624,4171.69696928,8.2424242416,4837.7878783,0.0,4438.03030259,3758.54545417,42.0,42.0,?
2017-06-01 18:04:44.122552,4539.51515106,0.0,4217.54545412,0.0,3917.21212082,0.0,3859.51515113,4112.96969656,4229.90909049,193.696969678,4387.03030259,370.909090872,4177.87878746,3717.33333296,4305.12121169,1883.39393921,4958.33333284,2913.69696941,4055.27272687,3610.18181782,4428.75757531,12.3636363624,4173.75757534,0.0,4840.36363588,0.0,4439.57575713,3758.54545417,42.0,42.0,?
2017-06-01 18:04:44.126224,4543.12121167,0.0,4213.93939352,0.0,3915.15151476,0.0,3861.06060567,4112.96969656,4229.90909049,193.696969678,4388.57575714,370.909090872,4184.06060564,3717.33333296,4299.45454502,1883.39393921,4955.75757526,2913.69696941,4058.87878747,3610.18181782,4427.72727228,12.3636363624,4174.78787837,0.0,4839.33333285,12.3636363624,4440.09090865,3758.54545417,42.0,42.0,?
2017-06-01 18:04:44.133450,4536.42424197,0.0,4211.87878746,0.0,3912.57575718,0.0,3858.99999961,4112.96969656,4230.93939352,193.696969678,4385.99999956,370.909090872,4184.57575716,3717.33333296,4296.87878745,1883.39393921,4947.51515102,2913.69696941,4061.45454505,3618.42424206,4429.78787834,12.3636363624,4175.8181814,0.0,4839.84848436,12.3636363624,4443.18181774,3758.54545417,42.0,42.0,?
2017-06-01 18:04:44.143333,4543.12121167,0.0,4215.99999958,0.0,3917.21212082,0.0,3866.72727234,4112.96969656,4230.424242,193.696969678,4381.36363593,370.909090872,4179.93939352,3717.33333296,4305.12121169,1883.39393921,4949.06060557,2913.69696941,4065.06060565,3618.42424206,4425.66666622,4.1212121208,4172.21212079,0.0,4838.81818133,12.3636363624,4451.42424198,3758.54545417,42.0,42.0,?
2017-06-01 18:04:44.148483,4535.90909046,0.0,4209.30302988,0.0,3916.69696931,0.0,3883.72727234,4112.96969656,4233.51515109,193.696969678,4379.30302987,370.909090872,4173.75757534,3717.33333296,4308.21212078,1883.39393921,4958.33333284,2913.69696941,4070.72727232,3618.42424206,4425.66666622,4.1212121208,4171.18181776,4.1212121208,4837.7878783,12.3636363624,4458.12121168,3758.54545417,42.0,42.0,?
2017-06-01 18:04:44.156411,4542.09090864,0.0,4213.93939352,0.0,3918.24242385,0.0,3878.57575719,4112.96969656,4234.03030261,193.696969678,4382.39393896,370.909090872,4166.54545413,3717.33333296,4294.81818139,1883.39393921,4954.72727223,2913.69696941,4058.36363596,3618.42424206,4429.27272683,4.1212121208,4174.27272686,4.1212121208,4842.42424194,12.3636363624,4447.81818137,3758.54545417,42.0,42.0,?
2017-06-01 18:04:44.164431,4541.06060561,0.0,4217.54545412,0.0,3916.69696931,0.0,3862.60606022,4112.96969656,4239.18181776,193.696969678,4387.54545411,370.909090872,4163.45454504,3717.33333296,4289.66666624,1883.39393921,4945.96969648,2913.69696941,4043.93939353,3618.42424206,4430.30302986,4.1212121208,4175.30302989,4.1212121208,4839.33333285,12.3636363624,4435.96969653,3758.54545417,42.0,42.0,?
2017-06-01 18:04:44.173160,4533.8484844,0.0,4214.96969655,0.0,3915.66666628,0.0,3862.0909087,4112.96969656,4240.7272723,193.696969678,4385.48484805,370.909090872,4164.99999958,3717.33333296,4294.81818139,1883.39393921,4945.45454496,2913.69696941,4045.48484808,3618.42424206,4429.78787834,4.1212121208,4175.30302989,4.1212121208,4837.7878783,12.3636363624,4434.9393935,3758.54545417,42.0,42.0,?
2017-06-01 18:04:44.180935,4545.69696924,0.0,4217.54545412,0.0,3918.75757537,0.0,3866.21212083,4112.96969656,4234.03030261,193.696969678,4382.39393896,370.909090872,4164.48484807,3717.33333296,4289.66666624,1883.39393921,4942.87878738,2913.69696941,4046.51515111,3618.42424206,4424.63636319,4.1212121208,4172.72727231,4.1212121208,4840.87878739,12.3636363624,4434.9393935,3758.54545417,42.0,42.0,?
