Timestamp,F3 Value,F3 Quality,FC5 Value,FC5 Quality,F7 Value,F7 Quality,T7 Value,T7 Quality,P7 Value,P7 Quality,O1 Value,O1 Quality,O2 Value,O2 Quality,P8 Value,P8 Quality,T8 Value,T8 Quality,F8 Value,F8 Quality,AF4 Value,AF4 Quality,FC6 Value,FC6 Quality,F4 Value,F4 Quality,AF3 Value,AF3 Quality,X Value,Y Value,Z Value
2017-06-01 17:05:10.972942,4531.78787833,0,4225.78787837,0,3938.84848445,0,3951.21212082,0,4324.18181775,0,4467.90909046,0,4246.39393897,0,4374.66666623,0,5029.93939344,0,4243.81818139,0,4421.03030259,0,4203.1212117,0,4838.81818133,0,4461.72727228,0,42.0,42.0,?
2017-06-01 17:05:10.973037,4545.18181773,0,4222.69696927,0,3946.57575718,0,3941.93939355,0,4322.6363632,0,4498.81818137,0,4283.48484806,0,4372.09090865,0,5031.9999995,0,4240.7272723,0,4428.75757531,0,4215.99999958,0,4839.33333285,0,4535.90909046,0,42.0,42.0,?
2017-06-01 17:05:10.976366,4542.09090864,0,4221.66666624,0,3943.48484809,0,3938.33333294,0,4324.18181775,0,4506.03030258,0,4271.63636321,0,4364.87878744,0,5005.21212071,0,4206.72727231,0,4427.21212077,0,4221.66666624,0,4841.39393891,0,4530.7575753,0,42.0,42.0,?
2017-06-01 17:05:10.979266,4540.54545409,0,4225.78787837,0,3954.30302991,0,3926.48484809,0,4320.06060563,0,4506.54545409,0,4252.06060564,0,4354.06060563,0,5005.21212071,0,4206.72727231,0,4428.2424238,0,4221.66666624,0,4840.87878739,0,4530.24242379,0,42.0,42.0,?
2017-06-01 17:05:10.982580,4540.54545409,0,4224.24242382,0,3957.90909051,0,3925.96969658,0,4325.72727229,0,4501.90909046,0,4238.15151473,0,4345.81818138,0,5003.66666617,0,4213.424242,0,4427.72727228,0,4219.09090867,0,4840.36363588,0,4531.27272682,0,42.0,42.0,?
2017-06-01 17:05:10.985905,4542.60606015,0,4221.66666624,0,3954.30302991,0,3930.0909087,0,4321.09090866,0,4491.09090864,0,4225.78787837,0,4337.57575714,0,5001.60606011,0,4212.39393897,0,4428.75757531,0,4217.54545412,0,4842.42424194,0,4533.33333288,0,42.0,42.0,?
2017-06-01 17:05:10.988654,4540.54545409,0,4224.24242382,0,3954.30302991,0,3924.93939355,0,4300.48484805,0,4474.09090864,0,4210.33333291,0,4332.93939351,0,4996.96969647,0,4212.39393897,0,4429.27272683,0,4219.09090867,0,4840.36363588,0,4531.27272682,0,42.0,42.0,?
2017-06-01 17:05:10.991857,4539.51515106,0,4226.30302988,0,3951.72727233,0,3921.33333294,0,4298.42424199,0,4464.30302986,0,4201.06060564,0,4336.54545411,0,4997.9999995,0,4224.75757534,0,4429.27272683,0,4220.1212117,0,4837.7878783,0,4530.7575753,0,42.0,42.0,?
2017-06-01 17:05:10.996415,4542.09090864,0,4225.27272685,0,3951.21212082,0,3925.45454506,0,4304.09090866,0,4461.21212077,0,4198.99999958,0,4337.06060563,0,5004.6969692,0,4225.78787837,0,4427.21212077,0,4218.06060564,0,4839.84848436,0,4533.33333288,0,42.0,42.0,?
2017-06-01 17:05:11.002271,4541.06060561,0,4223.21212079,0,3957.90909051,0,3925.96969658,0,4292.75757533,0,4458.12121168,0,4208.78787837,0,4338.09090866,0,5013.96969647,0,4226.30302988,0,4423.09090865,0,4218.06060564,0,4839.84848436,0,4531.78787833,0,42.0,42.0,?
2017-06-01 17:05:11.007564,4542.09090864,0,4222.69696927,0,3957.393939,0,3918.75757537,0,4287.60606018,0,4461.21212077,0,4240.7272723,0,4350.96969653,0,5019.63636313,0,4240.7272723,0,4424.12121168,0,4218.57575715,0,4841.39393891,0,4532.30302985,0,42.0,42.0,?
2017-06-01 17:05:11.010241,4541.57575712,0,4222.69696927,0,3953.27272688,0,3921.84848446,0,4305.63636321,0,4479.75757531,0,4277.81818139,0,4371.57575714,0,5027.36363586,0,4242.78787836,0,4424.63636319,0,4218.57575715,0,4840.87878739,0,4534.36363591,0,42.0,42.0,?
2017-06-01 17:05:11.014493,4542.09090864,0,4223.7272723,0,3956.87878748,0,3927.51515112,0,4314.90909048,0,4494.69696925,0,4287.60606018,0,4381.36363593,0,5034.06060556,0,4231.96969655,0,4424.63636319,0,4219.09090867,0,4838.81818133,0,4534.36363591,0,42.0,42.0,?
2017-06-01 17:05:11.016689,4544.1515147,0,4223.21212079,0,3953.27272688,0,3921.84848446,0,4307.69696927,0,4490.57575713,0,4273.69696927,0,4372.60606017,0,5024.78787829,0,4227.84848443,0,4428.75757531,0,4220.1212117,0,4840.87878739,0,4531.27272682,0,42.0,42.0,?
2017-06-01 17:05:11.020003,4540.03030258,0,4220.63636321,0,3933.6969693,0,3920.30302991,0,4313.87878745,0,4487.48484804,0,4262.87878745,0,4360.75757532,0,5018.6060601,0,4226.30302988,0,4428.75757531,0,4218.06060564,0,4840.36363588,0,4524.06060561,0,42.0,42.0,?
2017-06-01 17:05:11.023342,4543.12121167,0,4225.27272685,0,3925.96969658,0,3922.36363597,0,4316.45454502,0,4491.09090864,0,4246.90909048,0,4351.99999956,0,5018.09090859,0,4216.51515109,0,4426.69696925,0,4218.06060564,0,4839.84848436,0,4524.06060561,0,42.0,42.0,?
2017-06-01 17:05:11.029903,4544.66666621,0,4227.84848443,0,3941.42424203,0,3917.21212082,0,4302.54545412,0,4481.30302985,0,4219.60606018,0,4333.45454502,0,4998.51515102,0,4201.06060564,0,4424.12121168,0,4220.63636321,0,4840.87878739,0,4527.1515147,0,42.0,42.0,?
2017-06-01 17:05:11.037564,4540.03030258,0,4223.7272723,0,3959.45454506,0,3917.21212082,0,4298.93939351,0,4466.87878743,0,4196.93939352,0,4313.87878745,0,4976.87878738,0,4205.18181776,0,4424.63636319,0,4217.54545412,0,4840.87878739,0,4529.21212076,0,42.0,42.0,?
2017-06-01 17:05:11.047653,4543.63636318,0,4223.7272723,0,3955.84848445,0,3925.45454506,0,4301.51515109,0,4460.18181774,0,4193.33333291,0,4316.96969654,0,4987.18181768,0,4225.78787837,0,4427.21212077,0,4214.45454503,0,4840.87878739,0,4532.81818136,0,42.0,42.0,?
2017-06-01 17:05:11.052788,4543.63636318,0,4223.7272723,0,3943.48484809,0,3922.87878749,0,4292.75757533,0,4456.57575713,0,4206.72727231,0,4332.93939351,0,5006.24242374,0,4226.30302988,0,4424.12121168,0,4219.09090867,0,4840.87878739,0,4526.63636318,0,42.0,42.0,?
2017-06-01 17:05:11.061961,4540.54545409,0,4224.24242382,0,3955.84848445,0,3921.84848446,0,4292.24242381,0,4461.72727228,0,4225.78787837,0,4339.6363632,0,5007.27272677,0,4214.96969655,0,4424.63636319,0,4221.66666624,0,4841.90909042,0,4525.60606015,0,42.0,42.0,?
2017-06-01 17:05:11.068318,4543.12121167,0,4223.7272723,0,3971.30302991,0,3926.99999961,0,4298.42424199,0,4470.48484804,0,4239.18181776,0,4340.15151472,0,5007.27272677,0,4226.8181814,0,4426.18181774,0,4219.09090867,0,4839.84848436,0,4534.36363591,0,42.0,42.0,?
2017-06-01 17:05:11.077069,4544.1515147,0,4222.18181776,0,3958.42424203,0,3923.393939,0,4292.75757533,0,4470.99999955,0,4243.81818139,0,4344.27272684,0,5016.03030253,0,4236.60606018,0,4423.09090865,0,4219.09090867,0,4838.81818133,0,4532.81818136,0,42.0,42.0,?
2017-06-01 17:05:11.088237,4543.12121167,0,4225.78787837,0,3948.63636324,0,3919.27272688,0,4289.66666624,0,4472.03030258,0,4247.424242,0,4347.36363593,0,5020.15151465,0,4225.27272685,0,4425.15151471,0,4220.1212117,0,4842.42424194,0,4527.66666621,0,42.0,42.0,?
2017-06-01 17:05:11.094401,4540.03030258,0,4227.33333291,0,3959.96969657,0,3920.30302991,0,4291.7272723,0,4472.5454541,0,4248.45454503,0,4344.78787835,0,5013.45454495,0,4222.69696927,0,4428.2424238,0,4218.06060564,0,4839.84848436,0,4526.12121167,0,42.0,42.0,?
2017-06-01 17:05:11.099527,4541.06060561,0,4224.75757534,0,3950.6969693,0,3913.60606021,0,4289.66666624,0,4469.96969652,0,4245.87878745,0,4341.69696926,0,5005.21212071,0,4223.21212079,0,4426.69696925,0,4218.06060564,0,4837.27272679,0,4527.1515147,0,42.0,42.0,?
2017-06-01 17:05:11.109503,4544.1515147,0,4222.18181776,0,3926.48484809,0,3906.393939,0,4298.93939351,0,4477.69696925,0,4244.33333291,0,4342.21212078,0,5004.18181768,0,4208.78787837,0,4425.15151471,0,4219.09090867,0,4842.42424194,0,4524.06060561,0,42.0,42.0,?
2017-06-01 17:05:11.116026,4542.60606015,0,4221.66666624,0,3920.30302991,0,3904.84848446,0,4296.36363593,0,4477.18181773,0,4224.75757534,0,4327.78787836,0,4988.72727223,0,4184.06060564,0,4425.15151471,0,4217.03030261,0,4841.90909042,0,4517.36363591,0,42.0,42.0,?
2017-06-01 17:05:11.124160,4543.63636318,0,4223.21212079,0,3927.51515112,0,3900.72727234,0,4274.7272723,0,4459.66666622,0,4196.424242,0,4304.60606018,0,4964.51515102,0,4177.36363595,0,4425.15151471,0,4215.48484806,0,4839.33333285,0,4520.96969652,0,42.0,42.0,?
2017-06-01 17:05:11.132593,4541.06060561,0,4221.66666624,0,3940.393939,0,3906.90909052,0,4281.424242,0,4457.60606016,0,4196.424242,0,4310.78787836,0,4977.3939389,0,4208.27272685,0,4422.57575713,0,4217.54545412,0,4840.87878739,0,4527.1515147,0,42.0,42.0,?
2017-06-01 17:05:11.139261,4540.03030258,0,4223.21212079,0,3939.87878748,0,3915.15151476,0,4300.48484805,0,4465.33333289,0,4212.39393897,0,4329.84848442,0,5007.27272677,0,4229.39393897,0,4424.12121168,0,4219.09090867,0,4843.96969649,0,4526.12121167,0,42.0,42.0,?
2017-06-01 17:05:11.147176,4545.69696924,0,4226.30302988,0,3926.99999961,0,3912.57575718,0,4287.60606018,0,4456.06060561,0,4215.48484806,0,4329.84848442,0,5001.09090859,0,4211.36363594,0,4426.18181774,0,4219.09090867,0,4842.42424194,0,4523.54545409,0,42.0,42.0,?
2017-06-01 17:05:11.155498,4543.12121167,0,4225.27272685,0,3934.21212082,0,3904.33333294,0,4273.69696927,0,4444.72727228,0,4214.96969655,0,4328.81818139,0,4987.18181768,0,4202.60606019,0,4424.12121168,0,4218.57575715,0,4838.81818133,0,4524.57575712,0,42.0,42.0,?
2017-06-01 17:05:11.162422,4542.60606015,0,4225.78787837,0,3946.06060567,0,3898.15151476,0,4280.90909048,0,4443.18181774,0,4219.09090867,0,4332.93939351,0,4992.84848435,0,4211.36363594,0,4425.15151471,0,4219.09090867,0,4840.36363588,0,4529.21212076,0,42.0,42.0,?
2017-06-01 17:05:11.172254,4543.63636318,0,4225.27272685,0,3941.42424203,0,3900.21212082,0,4281.424242,0,4445.2424238,0,4224.24242382,0,4331.90909048,0,4996.45454495,0,4207.75757534,0,4425.66666622,0,4219.09090867,0,4840.36363588,0,4526.12121167,0,42.0,42.0,?
2017-06-01 17:05:11.177334,4542.09090864,0,4222.69696927,0,3938.33333294,0,3905.87878749,0,4266.99999957,0,4446.27272683,0,4227.84848443,0,4328.81818139,0,4991.3030298,0,4204.66666625,0,4423.09090865,0,4219.09090867,0,4839.33333285,0,4520.454545,0,42.0,42.0,?
2017-06-01 17:05:11.185318,4543.63636318,0,4222.18181776,0,3936.78787839,0,3903.81818143,0,4258.24242382,0,4451.42424198,0,4224.75757534,0,4327.78787836,0,4988.21212071,0,4207.24242382,0,4428.2424238,0,4219.09090867,0,4841.39393891,0,4524.06060561,0,42.0,42.0,?
2017-06-01 17:05:11.194195,4540.03030258,0,4223.21212079,0,3928.54545415,0,3904.84848446,0,4272.66666624,0,4464.81818137,0,4227.33333291,0,4331.90909048,0,4992.84848435,0,4203.1212117,0,4433.39393895,0,4218.06060564,0,4838.30302982,0,4525.60606015,0,42.0,42.0,?
2017-06-01 17:05:11.201828,4540.03030258,0,4226.30302988,0,3928.54545415,0,3913.0909087,0,4291.21212078,0,4472.03030258,0,4230.93939352,0,4335.51515108,0,4999.03030253,0,4201.06060564,0,4428.2424238,0,4218.06060564,0,4839.84848436,0,4525.60606015,0,42.0,42.0,?
2017-06-01 17:05:11.211681,4541.06060561,0,4225.78787837,0,3938.84848445,0,3911.54545415,0,4289.15151472,0,4466.36363592,0,4220.63636321,0,4330.36363593,0,4993.87878738,0,4203.1212117,0,4422.57575713,0,4219.60606018,0,4845.51515103,0,4526.63636318,0,42.0,42.0,?
2017-06-01 17:05:11.218005,4539.51515106,0,4222.18181776,0,3940.393939,0,3901.75757537,0,4281.424242,0,4460.18181774,0,4208.78787837,0,4325.21212078,0,4983.06060556,0,4198.99999958,0,4425.66666622,0,4217.54545412,0,4843.96969649,0,4521.99999955,0,42.0,42.0,?
2017-06-01 17:05:11.225047,4540.54545409,0,4221.15151473,0,3927.51515112,0,3898.15151476,0,4280.39393897,0,4451.42424198,0,4198.48484806,0,4319.54545411,0,4980.48484799,0,4194.87878746,0,4430.81818138,0,4215.48484806,0,4839.84848436,0,4519.42424197,0,42.0,42.0,?
2017-06-01 17:05:11.233028,4541.06060561,0,4221.66666624,0,3922.87878749,0,3900.21212082,0,4277.30302988,0,4442.66666622,0,4186.1212117,0,4311.81818139,0,4984.60606011,0,4196.424242,0,4427.21212077,0,4218.06060564,0,4837.7878783,0,4520.454545,0,42.0,42.0,?
2017-06-01 17:05:11.240399,4542.60606015,0,4222.69696927,0,3938.33333294,0,3902.7878784,0,4272.66666624,0,4442.66666622,0,4187.66666625,0,4314.39393896,0,4988.21212071,0,4202.09090867,0,4425.15151471,0,4220.63636321,0,4838.30302982,0,4524.57575712,0,42.0,42.0,?
2017-06-01 17:05:11.248456,4541.57575712,0,4224.75757534,0,3952.24242385,0,3907.42424203,0,4273.69696927,0,4445.2424238,0,4210.33333291,0,4330.36363593,0,4995.42424192,0,4216.51515109,0,4424.63636319,0,4221.15151473,0,4839.84848436,0,4527.66666621,0,42.0,42.0,?
2017-06-01 17:05:11.258202,4537.96969652,0,4224.24242382,0,3942.45454506,0,3911.03030264,0,4276.27272685,0,4442.66666622,0,4238.15151473,0,4344.78787835,0,5008.3030298,0,4230.424242,0,4422.57575713,0,4217.03030261,0,4840.36363588,0,4525.09090864,0,42.0,42.0,?
2017-06-01 17:05:11.266357,4542.09090864,0,4224.24242382,0,3930.60606021,0,3909.48484809,0,4276.78787836,0,4443.18181774,0,4253.60606018,0,4349.42424199,0,5013.45454495,0,4228.36363594,0,4425.15151471,0,4213.424242,0,4842.42424194,0,4524.06060561,0,42.0,42.0,?
2017-06-01 17:05:11.271354,4545.18181773,0,4225.27272685,0,3939.36363597,0,3910.51515112,0,4276.78787836,0,4449.87878743,0,4254.1212117,0,4348.39393896,0,5008.81818132,0,4217.54545412,0,4426.18181774,0,4215.99999958,0,4839.84848436,0,4524.06060561,0,42.0,42.0,?
2017-06-01 17:05:11.279484,4543.63636318,12.3636363624,4225.78787837,0,3942.45454506,0,3912.06060567,0,4274.21212078,0,4454.51515107,0,4248.45454503,0,4344.78787835,0,5005.21212071,0,4210.84848443,0,4425.15151471,0,4220.1212117,0,4838.81818133,0,4525.09090864,0,42.0,42.0,?
2017-06-01 17:05:11.287736,4543.12121167,12.3636363624,4224.75757534,4.1212121208,3939.87878748,0,3912.57575718,0,4280.90909048,0,4461.72727228,0,4248.45454503,0,4343.75757532,0,5003.15151465,0,4209.30302988,0,4424.12121168,0,4219.09090867,0,4841.90909042,0,4527.66666621,0,42.0,42.0,?
2017-06-01 17:05:11.295536,4542.09090864,12.3636363624,4221.66666624,4.1212121208,3951.21212082,0,3921.33333294,0,4296.36363593,0,4477.69696925,0,4247.424242,0,4344.78787835,0,5003.15151465,0,4214.45454503,0,4423.60606016,0,4216.51515109,0,4840.36363588,0,4528.18181773,1483.63636349,42.0,42.0,?
2017-06-01 17:05:11.305109,4543.63636318,12.3636363624,4222.69696927,4.1212121208,3955.33333294,53.5757575704,3925.45454506,0,4299.96969654,0,4480.27272682,0,4228.87878746,0,4334.48484805,0,5002.12121162,0,4215.99999958,0,4425.66666622,0,4215.99999958,0,4839.84848436,0,4528.18181773,1483.63636349,42.0,42.0,?
2017-06-01 17:05:11.310425,4542.09090864,12.3636363624,4224.24242382,4.1212121208,3940.90909052,53.5757575704,3913.60606021,20.606060604,4292.24242381,0,4465.8484844,0,4208.78787837,0,4320.57575714,0,4990.27272677,0,4202.60606019,0,4425.66666622,0,4215.48484806,0,4841.39393891,0,4524.06060561,1483.63636349,42.0,42.0,?
2017-06-01 17:05:11.318904,4541.57575712,12.3636363624,4223.7272723,4.1212121208,3935.24242385,53.5757575704,3906.393939,20.606060604,4288.12121169,4117.09090868,4458.63636319,0,4199.5151511,0,4315.42424199,0,4982.54545405,0,4194.87878746,0,4427.21212077,0,4218.57575715,0,4843.45454497,0,4521.99999955,1483.63636349,42.0,42.0,?
2017-06-01 17:05:11.327134,4544.66666621,12.3636363624,4225.27272685,4.1212121208,3943.48484809,53.5757575704,3914.63636324,20.606060604,4290.69696927,4117.09090868,4462.75757531,2583.99999974,4189.72727231,0,4316.45454502,0,4992.33333283,0,4215.99999958,0,4428.2424238,0,4221.15151473,0,4842.93939346,0,4527.66666621,1483.63636349,42.0,42.0,?
2017-06-01 17:05:11.334385,4541.06060561,12.3636363624,4225.27272685,4.1212121208,3953.78787839,53.5757575704,3922.36363597,20.606060604,4293.78787836,4117.09090868,4459.15151471,2583.99999974,4192.8181814,2637.57575731,4326.75757532,0,5005.21212071,0,4237.1212117,0,4424.12121168,0,4218.57575715,0,4840.36363588,0,4531.27272682,1483.63636349,42.0,42.0,?
2017-06-01 17:05:11.344595,4541.57575712,12.3636363624,4225.27272685,4.1212121208,3962.03030263,53.5757575704,3918.75757537,20.606060604,4289.66666624,4117.09090868,4448.33333289,2583.99999974,4215.48484806,2637.57575731,4337.06060563,1825.69696951,5011.90909041,0,4231.96969655,0,4425.15151471,0,4214.96969655,0,4843.45454497,0,4529.21212076,1483.63636349,42.0,42.0,?
2017-06-01 17:05:11.349504,4543.63636318,12.3636363624,4221.66666624,4.1212121208,3958.42424203,53.5757575704,3916.18181779,20.606060604,4283.48484806,4117.09090868,4446.27272683,2583.99999974,4240.21212079,2637.57575731,4341.69696926,1825.69696951,5019.63636313,2864.24242396,4226.30302988,0,4427.21212077,0,4215.48484806,0,4842.42424194,0,4524.06060561,1483.63636349,42.0,42.0,?
2017-06-01 17:05:11.357731,4542.60606015,12.3636363624,4221.66666624,4.1212121208,3953.78787839,53.5757575704,3919.27272688,20.606060604,4286.06060563,4117.09090868,4456.57575713,2583.99999974,4257.7272723,2637.57575731,4350.96969653,1825.69696951,5023.24242374,2864.24242396,4231.45454503,3770.90909053,4423.60606016,0,4219.60606018,0,4839.33333285,0,4526.63636318,1483.63636349,42.0,42.0,?
2017-06-01 17:05:11.368761,4543.63636318,12.3636363624,4225.78787837,4.1212121208,3957.393939,53.5757575704,3919.27272688,20.606060604,4285.54545412,4117.09090868,4462.75757531,2583.99999974,4259.78787836,2637.57575731,4355.60606017,1825.69696951,5019.12121162,2864.24242396,4231.45454503,3770.90909053,4426.18181774,12.3636363624,4220.63636321,0,4843.45454497,0,4531.78787833,1483.63636349,42.0,42.0,?
2017-06-01 17:05:11.375517,4542.60606015,12.3636363624,4222.18181776,4.1212121208,3947.60606021,53.5757575704,3918.24242385,20.606060604,4287.09090866,4117.09090868,4465.33333289,2583.99999974,4255.66666624,2637.57575731,4352.51515108,1825.69696951,5016.03030253,2864.24242396,4230.424242,3770.90909053,4428.2424238,12.3636363624,4219.60606018,0.0,4844.484848,0,4526.63636318,1483.63636349,42.0,42.0,?
2017-06-01 17:05:11.385107,4545.18181773,12.3636363624,4223.21212079,4.1212121208,3925.96969658,53.5757575704,3920.81818143,20.606060604,4297.39393896,4117.09090868,4474.60606016,2583.99999974,4252.57575715,2637.57575731,4353.03030259,1825.69696951,5016.03030253,2864.24242396,4228.87878746,3770.90909053,4426.69696925,12.3636363624,4219.60606018,0.0,4841.90909042,8.2424242416,4525.09090864,1483.63636349,42.0,42.0,?
2017-06-01 17:05:11.390473,4544.66666621,12.3636363624,4225.27272685,4.1212121208,3927.51515112,53.5757575704,3913.60606021,20.606060604,4293.27272684,4117.09090868,4474.60606016,2583.99999974,4234.54545412,2637.57575731,4345.30302987,1825.69696951,5011.90909041,2864.24242396,4217.54545412,3766.78787841,4425.66666622,12.3636363624,4218.57575715,0.0,4839.84848436,8.2424242416,4523.54545409,1483.63636349,42.0,42.0,?
2017-06-01 17:05:11.399424,4538.48484803,12.3636363624,4221.66666624,4.1212121208,3946.06060567,53.5757575704,3899.18181779,20.606060604,4284.51515109,4117.09090868,4469.45454501,2583.99999974,4213.93939352,2637.57575731,4331.39393896,1825.69696951,5007.78787829,2864.24242396,4209.8181814,3766.78787841,4423.60606016,0.0,4219.09090867,0.0,4838.81818133,8.2424242416,4521.48484803,1483.63636349,42.0,42.0,?
2017-06-01 17:05:11.404370,4540.54545409,12.3636363624,4223.21212079,4.1212121208,3950.18181779,53.5757575704,3904.84848446,20.606060604,4297.39393896,4117.09090868,4476.1515147,2583.99999974,4222.18181776,2637.57575731,4330.36363593,1825.69696951,5007.78787829,2864.24242396,4210.84848443,3766.78787841,4426.18181774,0.0,4221.66666624,0.0,4839.33333285,8.2424242416,4526.12121167,1483.63636349,42.0,42.0,?
2017-06-01 17:05:11.412517,4544.66666621,12.3636363624,4225.27272685,4.1212121208,3951.21212082,53.5757575704,3924.42424203,20.606060604,4309.75757533,4117.09090868,4477.18181773,2583.99999974,4232.48484806,2637.57575731,4333.96969654,1825.69696951,5013.45454495,2864.24242396,4220.63636321,3766.78787841,4428.2424238,0.0,4218.57575715,0.0,4838.81818133,8.2424242416,4526.12121167,1483.63636349,42.0,42.0,?
2017-06-01 17:05:11.421494,4546.21212076,12.3636363624,4222.18181776,4.1212121208,3957.90909051,53.5757575704,3925.96969658,20.606060604,4296.87878745,4117.09090868,4466.87878743,2583.99999974,4214.96969655,2637.57575731,4325.21212078,1825.69696951,5013.96969647,2864.24242396,4239.18181776,3766.78787841,4427.72727228,0.0,4218.06060564,0.0,4840.36363588,8.2424242416,4527.1515147,1483.63636349,42.0,42.0,?
2017-06-01 17:05:11.428951,4542.09090864,12.3636363624,4221.66666624,4.1212121208,3949.66666627,53.5757575704,3916.69696931,20.606060604,4282.96969654,4117.09090868,4460.69696925,2583.99999974,4202.09090867,2637.57575731,4321.60606017,1825.69696951,5003.15151465,2864.24242396,4234.54545412,3766.78787841,4428.2424238,0.0,4220.63636321,0.0,4840.87878739,8.2424242416,4529.72727227,1483.63636349,42.0,42.0,?
2017-06-01 17:05:11.438614,4537.96969652,12.3636363624,4224.24242382,4.1212121208,3937.30302991,53.5757575704,3913.60606021,20.606060604,4279.87878745,4117.09090868,4451.42424198,2583.99999974,4208.78787837,2637.57575731,4328.81818139,1825.69696951,4998.51515102,2864.24242396,4213.93939352,3766.78787841,4430.30302986,0.0,4215.99999958,0.0,4839.84848436,8.2424242416,4522.51515106,1483.63636349,42.0,42.0,?
2017-06-01 17:05:11.444373,4542.60606015,12.3636363624,4224.75757534,4.1212121208,3937.30302991,53.5757575704,3907.42424203,20.606060604,4266.99999957,4117.09090868,4431.84848441,2583.99999974,4221.66666624,2637.57575731,4335.51515108,1825.69696951,5007.27272677,2864.24242396,4215.99999958,3766.78787841,4429.78787834,0.0,4212.90909049,0.0,4840.87878739,8.2424242416,4520.96969652,1483.63636349,42.0,42.0,?
2017-06-01 17:05:11.451557,4541.57575712,12.3636363624,4224.75757534,4.1212121208,3943.99999961,53.5757575704,3903.30302991,20.606060604,4258.75757533,4117.09090868,4429.27272683,2583.99999974,4241.24242382,2637.57575731,4348.90909047,1825.69696951,5020.66666616,2864.24242396,4235.57575715,3766.78787841,4424.12121168,0.0,4219.09090867,0.0,4839.33333285,8.2424242416,4525.60606015,1483.63636349,42.0,42.0,?
2017-06-01 17:05:11.461458,4538.48484803,12.3636363624,4225.27272685,4.1212121208,3935.75757536,53.5757575704,3903.81818143,20.606060604,4265.96969654,4117.09090868,4444.72727228,2583.99999974,4258.24242382,2637.57575731,4357.15151472,1825.69696951,5022.21212071,2864.24242396,4230.424242,3766.78787841,4424.63636319,0.0,4221.66666624,0.0,4840.87878739,8.2424242416,4523.03030258,1483.63636349,42.0,42.0,?
2017-06-01 17:05:11.468741,4540.54545409,12.3636363624,4223.7272723,4.1212121208,3923.90909052,53.5757575704,3904.33333294,20.606060604,4275.75757533,4117.09090868,4460.18181774,2583.99999974,4260.30302988,2637.57575731,4354.57575714,1825.69696951,5012.93939344,2864.24242396,4205.69696928,3766.78787841,4427.72727228,0.0,4218.57575715,0.0,4842.93939346,8.2424242416,4519.93939349,1483.63636349,42.0,42.0,?
2017-06-01 17:05:11.475918,4542.09090864,12.3636363624,4220.63636321,4.1212121208,3930.60606021,53.5757575704,3905.36363597,20.606060604,4282.45454503,4117.09090868,4472.03030258,2583.99999974,4250.51515109,2637.57575731,4351.48484805,1825.69696951,5011.39393889,2864.24242396,4206.21212079,3766.78787841,4425.15151471,0.0,4218.06060564,0.0,4839.84848436,8.2424242416,4520.96969652,1483.63636349,42.0,42.0,?
2017-06-01 17:05:11.485520,4542.60606015,12.3636363624,4220.1212117,4.1212121208,3930.60606021,53.5757575704,3901.24242385,20.606060604,4282.45454503,4117.09090868,4470.99999955,2583.99999974,4231.45454503,2637.57575731,4342.21212078,1825.69696951,5007.27272677,2864.24242396,4212.90909049,3766.78787841,4425.15151471,0.0,4220.1212117,0.0,4841.90909042,8.2424242416,4524.06060561,1483.63636349,42.0,42.0,?
2017-06-01 17:05:11.491031,4541.06060561,12.3636363624,4220.1212117,4.1212121208,3924.42424203,53.5757575704,3901.75757537,20.606060604,4289.66666624,4117.09090868,4466.87878743,2583.99999974,4217.03030261,2637.57575731,4333.96969654,1825.69696951,4996.45454495,2864.24242396,4202.60606019,3766.78787841,4425.66666622,0.0,4218.57575715,0.0,4843.45454497,8.2424242416,4520.454545,1483.63636349,42.0,42.0,?
2017-06-01 17:05:11.500073,4541.57575712,12.3636363624,4222.18181776,4.1212121208,3937.30302991,53.5757575704,3911.03030264,20.606060604,4301.51515109,4117.09090868,4474.09090864,2583.99999974,4219.09090867,2637.57575731,4332.42424199,1825.69696951,4992.84848435,2864.24242396,4200.54545413,3766.78787841,4425.66666622,0.0,4215.99999958,0.0,4841.39393891,8.2424242416,4521.99999955,1483.63636349,42.0,42.0,?
2017-06-01 17:05:11.506655,4542.09090864,12.3636363624,4224.24242382,4.1212121208,3948.12121173,53.5757575704,3913.0909087,20.606060604,4302.0303026,4117.09090868,4477.18181773,2583.99999974,4215.48484806,2637.57575731,4328.81818139,1825.69696951,5001.60606011,2864.24242396,4216.51515109,3766.78787841,4425.66666622,0.0,4215.99999958,0.0,4840.36363588,8.2424242416,4527.1515147,1483.63636349,42.0,42.0,?
2017-06-01 17:05:11.516330,4538.48484803,12.3636363624,4222.69696927,4.1212121208,3946.57575718,53.5757575704,3916.18181779,20.606060604,4294.81818139,4117.09090868,4468.93939349,2583.99999974,4200.54545413,2637.57575731,4322.6363632,1825.69696951,5008.3030298,2864.24242396,4226.30302988,3766.78787841,4424.12121168,0.0,4218.57575715,0.0,4838.30302982,8.2424242416,4524.57575712,1483.63636349,42.0,42.0,?
2017-06-01 17:05:11.522037,4543.63636318,12.3636363624,4224.75757534,4.1212121208,3952.24242385,53.5757575704,3920.81818143,20.606060604,4285.0303026,4117.09090868,4456.57575713,2583.99999974,4189.21212079,2637.57575731,4321.60606017,1825.69696951,5000.57575708,2864.24242396,4220.1212117,3766.78787841,4426.69696925,0.0,4220.63636321,0.0,4839.84848436,8.2424242416,4526.12121167,1483.63636349,42.0,42.0,?
2017-06-01 17:05:11.531006,4544.66666621,12.3636363624,4224.75757534,4.1212121208,3951.21212082,53.5757575704,3909.48484809,20.606060604,4274.7272723,4117.09090868,4443.69696925,2583.99999974,4188.69696928,2637.57575731,4322.12121169,1825.69696951,4995.42424192,2864.24242396,4223.7272723,3766.78787841,4429.78787834,0.0,4218.06060564,0.0,4840.36363588,8.2424242416,4527.1515147,1483.63636349,42.0,42.0,?
2017-06-01 17:05:11.540028,4539.51515106,12.3636363624,4222.18181776,4.1212121208,3941.42424203,53.5757575704,3904.84848446,20.606060604,4271.63636321,4117.09090868,4440.09090865,2583.99999974,4207.75757534,2637.57575731,4329.3333329,1825.69696951,5007.27272677,2864.24242396,4232.99999958,3766.78787841,4428.75757531,0.0,4218.06060564,0.0,4838.81818133,8.2424242416,4523.03030258,1483.63636349,42.0,42.0,?
2017-06-01 17:05:11.546706,4542.60606015,12.3636363624,4223.21212079,4.1212121208,3954.81818142,53.5757575704,3920.30302991,20.606060604,4275.75757533,4117.09090868,4445.75757531,2583.99999974,4226.8181814,2637.57575731,4341.18181775,1825.69696951,5021.69696919,2864.24242396,4233.51515109,3766.78787841,4426.18181774,0.0,4220.1212117,0.0,4839.84848436,8.2424242416,4525.60606015,1483.63636349,42.0,42.0,?
2017-06-01 17:05:11.555610,4542.60606015,12.3636363624,4223.7272723,4.1212121208,3977.9999996,53.5757575704,3924.42424203,20.606060604,4275.75757533,4117.09090868,4444.21212077,2583.99999974,4229.39393897,2637.57575731,4344.78787835,1825.69696951,5023.75757526,2864.24242396,4237.1212117,3766.78787841,4424.63636319,0.0,4219.60606018,0.0,4840.36363588,8.2424242416,4530.7575753,1483.63636349,42.0,42.0,?
2017-06-01 17:05:11.562319,4543.12121167,12.3636363624,4223.7272723,4.1212121208,3966.66666627,53.5757575704,3916.69696931,20.606060604,4277.81818139,4117.09090868,4446.27272683,2583.99999974,4232.99999958,2637.57575731,4343.75757532,1825.69696951,5017.57575707,2864.24242396,4241.75757533,3766.78787841,4427.21212077,0.0,4220.1212117,0.0,4839.33333285,8.2424242416,4532.30302985,1483.63636349,42.0,42.0,?
2017-06-01 17:05:11.568479,4543.12121167,12.3636363624,4222.69696927,4.1212121208,3940.90909052,53.5757575704,3917.21212082,20.606060604,4289.66666624,4117.09090868,4460.69696925,2583.99999974,4241.24242382,2637.57575731,4344.78787835,1825.69696951,5012.42424192,2864.24242396,4229.39393897,3766.78787841,4426.18181774,0.0,4220.63636321,0.0,4838.30302982,8.2424242416,4526.12121167,1483.63636349,42.0,42.0,?
2017-06-01 17:05:11.580349,4541.06060561,12.3636363624,4222.18181776,4.1212121208,3941.93939355,53.5757575704,3912.57575718,20.606060604,4293.27272684,4117.09090868,4467.39393895,2583.99999974,4234.54545412,2637.57575731,4338.60606017,1825.69696951,5004.18181768,2864.24242396,4205.69696928,3766.78787841,4424.63636319,0.0,4215.99999958,0.0,4839.84848436,8.2424242416,4518.90909046,1483.63636349,42.0,42.0,?
2017-06-01 17:05:11.585581,4541.57575712,12.3636363624,4222.18181776,4.1212121208,3955.84848445,53.5757575704,3905.36363597,20.606060604,4287.60606018,4117.09090868,4468.93939349,2583.99999974,4226.30302988,2637.57575731,4331.90909048,1825.69696951,4997.9999995,2864.24242396,4200.54545413,3766.78787841,4428.2424238,0.0,4213.424242,0.0,4842.42424194,8.2424242416,4521.48484803,1483.63636349,42.0,42.0,?
2017-06-01 17:05:11.592536,4540.03030258,12.3636363624,4222.18181776,4.1212121208,3959.45454506,53.5757575704,3913.0909087,20.606060604,4288.12121169,4117.09090868,4474.09090864,2583.99999974,4228.87878746,2637.57575731,4331.90909048,1825.69696951,5000.57575708,2864.24242396,4213.93939352,3766.78787841,4426.18181774,0.0,4218.57575715,0.0,4840.87878739,8.2424242416,4524.57575712,1483.63636349,42.0,42.0,?
2017-06-01 17:05:11.604667,4542.60606015,12.3636363624,4224.24242382,4.1212121208,3951.72727233,53.5757575704,3912.06060567,20.606060604,4290.69696927,4117.09090868,4468.42424198,2583.99999974,4213.93939352,2637.57575731,4325.72727229,1825.69696951,4997.48484799,2864.24242396,4215.48484806,3766.78787841,4423.09090865,0.0,4220.63636321,0.0,4841.39393891,8.2424242416,4525.09090864,1483.63636349,42.0,42.0,?
2017-06-01 17:05:11.612988,4543.63636318,12.3636363624,4225.27272685,4.1212121208,3942.96969658,53.5757575704,3897.63636325,20.606060604,4280.39393897,4117.09090868,4450.90909046,2583.99999974,4189.21212079,2637.57575731,4314.90909048,1825.69696951,4991.81818132,2864.24242396,4206.21212079,3766.78787841,4424.63636319,0.0,4218.57575715,0.0,4843.45454497,8.2424242416,4523.54545409,1483.63636349,42.0,42.0,?
2017-06-01 17:05:11.618251,4540.54545409,12.3636363624,4224.75757534,4.1212121208,3943.48484809,53.5757575704,3898.15151476,20.606060604,4269.57575715,4117.09090868,4441.12121168,2583.99999974,4190.24242382,2637.57575731,4317.48484805,1825.69696951,5002.12121162,2864.24242396,4214.45454503,3766.78787841,4426.69696925,0.0,4219.60606018,0.0,4840.36363588,8.2424242416,4521.99999955,1483.63636349,42.0,42.0,?
2017-06-01 17:05:11.627319,4541.06060561,12.3636363624,4225.27272685,4.1212121208,3949.66666627,53.5757575704,3908.96969658,20.606060604,4272.15151472,4117.09090868,4444.21212077,2583.99999974,4208.27272685,2637.57575731,4328.81818139,1825.69696951,5015.51515101,2864.24242396,4236.60606018,3766.78787841,4425.66666622,0.0,4221.15151473,0.0,4838.30302982,8.2424242416,4525.60606015,1483.63636349,42.0,42.0,?
2017-06-01 17:05:11.632704,4540.54545409,12.3636363624,4222.18181776,4.1212121208,3947.0909087,53.5757575704,3912.57575718,20.606060604,4276.27272685,4117.09090868,4446.27272683,2583.99999974,4217.54545412,2637.57575731,4333.96969654,1825.69696951,5013.96969647,2864.24242396,4239.18181776,3766.78787841,4422.06060562,0.0,4219.09090867,0.0,4837.27272679,8.2424242416,4525.09090864,1483.63636349,42.0,42.0,?
2017-06-01 17:05:11.641190,4543.63636318,12.3636363624,4220.1212117,4.1212121208,3934.72727233,53.5757575704,3909.99999961,20.606060604,4275.24242381,4117.09090868,4440.60606016,2583.99999974,4219.09090867,2637.57575731,4332.93939351,1825.69696951,5003.15151465,2864.24242396,4221.66666624,3766.78787841,4424.63636319,0.0,4217.54545412,0.0,4838.81818133,8.2424242416,4522.51515106,1483.63636349,42.0,42.0,?
2017-06-01 17:05:11.647740,4543.63636318,12.3636363624,4221.66666624,4.1212121208,3934.21212082,53.5757575704,3907.93939355,20.606060604,4274.21212078,4117.09090868,4440.60606016,2583.99999974,4223.21212079,2637.57575731,4331.39393896,1825.69696951,4999.03030253,2864.24242396,4210.33333291,3766.78787841,4426.69696925,0.0,4218.06060564,0.0,4840.87878739,8.2424242416,4520.96969652,1483.63636349,42.0,42.0,?
2017-06-01 17:05:11.656432,4537.96969652,12.3636363624,4222.18181776,4.1212121208,3940.393939,53.5757575704,3907.93939355,20.606060604,4276.78787836,4117.09090868,4456.06060561,2583.99999974,4230.424242,2637.57575731,4336.0303026,1825.69696951,5004.18181768,2864.24242396,4210.33333291,3766.78787841,4422.57575713,0.0,4219.09090867,0.0,4839.84848436,8.2424242416,4520.454545,1483.63636349,42.0,42.0,?
2017-06-01 17:05:11.663148,4541.57575712,12.3636363624,4223.21212079,4.1212121208,3938.33333294,53.5757575704,3906.90909052,20.606060604,4283.48484806,4117.09090868,4466.36363592,2583.99999974,4231.96969655,2637.57575731,4341.18181775,1825.69696951,5006.24242374,2864.24242396,4214.45454503,3766.78787841,4424.12121168,0.0,4219.09090867,0.0,4841.39393891,8.2424242416,4525.09090864,1483.63636349,42.0,42.0,?
2017-06-01 17:05:11.670545,4544.1515147,12.3636363624,4222.69696927,4.1212121208,3934.21212082,53.5757575704,3904.33333294,20.606060604,4290.18181775,4117.09090868,4467.39393895,2583.99999974,4225.78787837,2637.57575731,4337.57575714,1825.69696951,5005.72727223,2864.24242396,4223.21212079,3766.78787841,4428.2424238,0.0,4217.54545412,0.0,4842.93939346,8.2424242416,4521.99999955,1483.63636349,42.0,42.0,?
2017-06-01 17:05:11.680453,4542.60606015,12.3636363624,4224.24242382,4.1212121208,3930.0909087,53.5757575704,3911.54545415,20.606060604,4300.99999957,4117.09090868,4479.24242379,2583.99999974,4231.96969655,2637.57575731,4339.6363632,1825.69696951,5013.96969647,2864.24242396,4228.36363594,3766.78787841,4426.69696925,0.0,4217.03030261,0.0,4841.90909042,8.2424242416,4518.90909046,1483.63636349,42.0,42.0,?
2017-06-01 17:05:11.686912,4541.57575712,12.3636363624,4225.78787837,4.1212121208,3931.12121173,53.5757575704,3919.27272688,20.606060604,4306.15151472,4117.09090868,4486.96969652,2583.99999974,4240.21212079,2637.57575731,4346.3333329,1825.69696951,5021.18181768,2864.24242396,4223.7272723,3766.78787841,4424.63636319,0.0,4219.60606018,0.0,4840.87878739,8.2424242416,4524.06060561,1483.63636349,42.0,42.0,?
2017-06-01 17:05:11.695171,4538.48484803,12.3636363624,4223.7272723,4.1212121208,3938.84848445,53.5757575704,3913.60606021,20.606060604,4296.36363593,4117.09090868,4473.57575713,2583.99999974,4225.27272685,2637.57575731,4335.51515108,1825.69696951,5010.87878738,2864.24242396,4219.09090867,3766.78787841,4424.63636319,0.0,4217.54545412,0.0,4838.81818133,8.2424242416,4525.09090864,1483.63636349,42.0,42.0,?
2017-06-01 17:05:11.704176,4541.06060561,12.3636363624,4224.24242382,4.1212121208,3946.57575718,53.5757575704,3909.99999961,20.606060604,4287.09090866,4117.09090868,4466.87878743,2583.99999974,4204.15151473,2637.57575731,4320.06060563,1825.69696951,5001.09090859,2864.24242396,4218.06060564,3766.78787841,4425.66666622,0.0,4214.45454503,0.0,4839.33333285,8.2424242416,4524.57575712,1483.63636349,42.0,42.0,?
2017-06-01 17:05:11.710707,4542.09090864,12.3636363624,4223.7272723,4.1212121208,3949.66666627,53.5757575704,3919.7878784,20.606060604,4295.3333329,4117.09090868,4475.63636319,2583.99999974,4208.78787837,2637.57575731,4327.78787836,1825.69696951,5014.48484798,2864.24242396,4225.78787837,3766.78787841,4427.21212077,0.0,4218.06060564,0.0,4838.30302982,8.2424242416,4525.60606015,1483.63636349,42.0,42.0,?
2017-06-01 17:05:11.719709,4539.51515106,12.3636363624,4222.18181776,4.1212121208,3945.54545415,53.5757575704,3926.99999961,20.606060604,4297.90909048,4117.09090868,4475.12121167,2583.99999974,4225.27272685,2637.57575731,4346.3333329,1825.69696951,5025.81818132,2864.24242396,4237.63636321,3766.78787841,4427.72727228,0.0,4220.1212117,0.0,4839.33333285,8.2424242416,4525.60606015,1483.63636349,42.0,42.0,?
2017-06-01 17:05:11.726411,4542.09090864,12.3636363624,4223.21212079,4.1212121208,3939.36363597,53.5757575704,3925.96969658,20.606060604,4293.27272684,4117.09090868,4464.30302986,2583.99999974,4238.66666624,2637.57575731,4351.48484805,1825.69696951,5021.18181768,2864.24242396,4229.90909049,3766.78787841,4425.66666622,0.0,4219.60606018,0.0,4842.42424194,8.2424242416,4526.12121167,1483.63636349,42.0,42.0,?
2017-06-01 17:05:11.735119,4541.57575712,12.3636363624,4222.69696927,4.1212121208,3942.96969658,53.5757575704,3923.90909052,20.606060604,4292.24242381,4117.09090868,4456.57575713,2583.99999974,4245.36363594,2637.57575731,4349.42424199,1825.69696951,5017.06060556,2864.24242396,4217.54545412,3766.78787841,4423.60606016,0.0,4218.06060564,0.0,4840.36363588,8.2424242416,4523.03030258,1483.63636349,42.0,42.0,?
2017-06-01 17:05:11.741927,4543.63636318,12.3636363624,4225.78787837,4.1212121208,3943.99999961,53.5757575704,3911.54545415,20.606060604,4279.36363594,4117.09090868,4445.2424238,2583.99999974,4231.45454503,2637.57575731,4338.09090866,1825.69696951,5009.84848435,2864.24242396,4218.06060564,3766.78787841,4426.69696925,0.0,4217.54545412,0.0,4841.39393891,8.2424242416,4521.99999955,1483.63636349,42.0,42.0,?
2017-06-01 17:05:11.752438,4541.06060561,12.3636363624,4225.27272685,4.1212121208,3931.12121173,53.5757575704,3901.24242385,20.606060604,4273.69696927,4117.09090868,4441.12121168,2583.99999974,4219.09090867,2637.57575731,4327.27272684,1825.69696951,5000.06060556,2864.24242396,4219.60606018,3766.78787841,4425.66666622,0.0,4217.54545412,0.0,4841.39393891,8.2424242416,4518.90909046,1483.63636349,42.0,42.0,?
2017-06-01 17:05:11.757317,4535.39393894,12.3636363624,4219.60606018,4.1212121208,3920.81818143,53.5757575704,3909.99999961,20.606060604,4287.09090866,4117.09090868,4457.60606016,2583.99999974,4228.36363594,2637.57575731,4332.42424199,1825.69696951,5008.81818132,2864.24242396,4215.99999958,3766.78787841,4420.51515107,0.0,4215.48484806,0.0,4836.75757527,8.2424242416,4513.24242379,1483.63636349,42.0,42.0,?
2017-06-01 17:05:11.766175,4543.63636318,12.3636363624,4222.18181776,4.1212121208,3923.90909052,53.5757575704,3919.27272688,20.606060604,4291.7272723,4117.09090868,4473.06060561,2583.99999974,4231.45454503,2637.57575731,4335.51515108,1825.69696951,5013.45454495,2864.24242396,4209.30302988,3766.78787841,4426.69696925,0.0,4213.93939352,0.0,4840.87878739,8.2424242416,4521.48484803,1483.63636349,42.0,42.0,?
2017-06-01 17:05:11.774022,4545.18181773,12.3636363624,4224.75757534,4.1212121208,3939.87878748,53.5757575704,3922.36363597,20.606060604,4290.18181775,4117.09090868,4473.06060561,2583.99999974,4221.15151473,2637.57575731,4329.3333329,1825.69696951,5005.21212071,2864.24242396,4206.72727231,3766.78787841,4428.75757531,0.0,4215.99999958,0.0,4840.87878739,8.2424242416,4527.66666621,1483.63636349,42.0,42.0,?
2017-06-01 17:05:11.781386,4541.57575712,8.2424242416,4223.21212079,4.1212121208,3954.30302991,53.5757575704,3920.81818143,20.606060604,4293.78787836,4117.09090868,4464.30302986,2583.99999974,4214.96969655,2637.57575731,4326.75757532,1825.69696951,5009.33333283,2864.24242396,4214.45454503,3766.78787841,4426.69696925,0.0,4220.1212117,0.0,4838.30302982,8.2424242416,4526.12121167,1483.63636349,42.0,42.0,?
2017-06-01 17:05:11.787956,4543.12121167,8.2424242416,4223.21212079,4.1212121208,3953.78787839,53.5757575704,3921.33333294,20.606060604,4295.84848442,4117.09090868,4463.78787834,2583.99999974,4213.424242,2637.57575731,4326.24242381,1825.69696951,5019.12121162,2864.24242396,4221.66666624,3766.78787841,4428.2424238,0.0,4220.63636321,0.0,4839.33333285,8.2424242416,4528.18181773,1483.63636349,42.0,42.0,?
2017-06-01 17:05:11.795721,4541.57575712,8.2424242416,4223.21212079,4.1212121208,3951.21212082,53.5757575704,3925.45454506,20.606060604,4298.42424199,4117.09090868,4466.87878743,2583.99999974,4208.78787837,2637.57575731,4322.12121169,1825.69696951,5017.06060556,2864.24242396,4218.06060564,3766.78787841,4427.21212077,0.0,4217.54545412,0.0,4838.81818133,8.2424242416,4525.60606015,1495.99999985,42.0,42.0,?
2017-06-01 17:05:11.805176,4542.60606015,8.2424242416,4225.78787837,4.1212121208,3957.393939,78.3030302952,3921.33333294,20.606060604,4296.36363593,4117.09090868,4462.75757531,2583.99999974,4202.60606019,2637.57575731,4321.60606017,1825.69696951,5019.63636313,2864.24242396,4227.84848443,3766.78787841,4428.75757531,0.0,4214.96969655,0.0,4840.87878739,8.2424242416,4527.66666621,1495.99999985,42.0,42.0,?
2017-06-01 17:05:11.814331,4541.06060561,8.2424242416,4225.27272685,4.1212121208,3955.84848445,78.3030302952,3917.72727234,20.606060604,4290.69696927,4117.09090868,4461.72727228,2583.99999974,4211.87878746,2637.57575731,4335.51515108,1825.69696951,5037.15151465,2864.24242396,4247.93939351,3766.78787841,4426.69696925,0.0,4216.51515109,0.0,4840.87878739,8.2424242416,4531.27272682,1495.99999985,42.0,42.0,?
2017-06-01 17:05:11.820958,4541.57575712,8.2424242416,4223.21212079,4.1212121208,3951.21212082,78.3030302952,3928.54545415,20.606060604,4296.36363593,4104.72727232,4469.45454501,2583.99999974,4239.69696927,2637.57575731,4355.09090866,1825.69696951,5050.03030253,2864.24242396,4246.90909048,3766.78787841,4425.66666622,0.0,4221.15151473,0.0,4840.87878739,8.2424242416,4529.72727227,1495.99999985,42.0,42.0,?
2017-06-01 17:05:11.830022,4545.69696924,8.2424242416,4225.27272685,4.1212121208,3956.87878748,78.3030302952,3934.72727233,20.606060604,4299.96969654,4104.72727232,4471.51515107,2571.63636338,4256.18181776,2637.57575731,4362.81818138,1825.69696951,5049.51515101,2864.24242396,4231.96969655,3766.78787841,4428.75757531,0.0,4221.15151473,0.0,4842.42424194,8.2424242416,4528.18181773,1495.99999985,42.0,42.0,?
2017-06-01 17:05:11.837054,4541.06060561,8.2424242416,4227.84848443,4.1212121208,3956.36363597,78.3030302952,3924.93939355,20.606060604,4291.7272723,4104.72727232,4462.2424238,2571.63636338,4245.36363594,2645.81818155,4353.54545411,1825.69696951,5040.75757525,2864.24242396,4219.09090867,3766.78787841,4426.69696925,0.0,4215.48484806,0.0,4840.87878739,8.2424242416,4524.06060561,1495.99999985,42.0,42.0,?
2017-06-01 17:05:11.843007,4543.12121167,8.2424242416,4227.33333291,4.1212121208,3948.12121173,78.3030302952,3917.72727234,20.606060604,4287.09090866,4104.72727232,4456.57575713,2571.63636338,4228.36363594,2645.81818155,4342.21212078,1825.69696951,5028.90909041,2864.24242396,4213.424242,3766.78787841,4427.21212077,0.0,4215.99999958,0.0,4840.87878739,8.2424242416,4529.21212076,1495.99999985,42.0,42.0,?
2017-06-01 17:05:11.851308,4547.7575753,8.2424242416,4223.7272723,4.1212121208,3948.63636324,78.3030302952,3919.27272688,20.606060604,4297.39393896,4104.72727232,4465.33333289,2571.63636338,4230.424242,2645.81818155,4344.27272684,1825.69696951,5028.90909041,2851.87878759,4226.8181814,3766.78787841,4429.27272683,0.0,4218.57575715,0.0,4840.87878739,8.2424242416,4532.30302985,1495.99999985,42.0,42.0,?
2017-06-01 17:05:11.859135,4545.18181773,8.2424242416,4223.7272723,4.1212121208,3942.45454506,78.3030302952,3922.36363597,20.606060604,4307.18181775,4104.72727232,4477.69696925,2571.63636338,4232.48484806,2645.81818155,4346.84848441,1825.69696951,5031.9999995,2851.87878759,4230.93939352,3775.03030265,4427.21212077,0.0,4214.96969655,0.0,4840.87878739,8.2424242416,4527.66666621,1495.99999985,42.0,42.0,?
2017-06-01 17:05:11.866816,4545.18181773,8.2424242416,4225.27272685,4.1212121208,3925.96969658,78.3030302952,3919.7878784,20.606060604,4298.93939351,4104.72727232,4474.09090864,2571.63636338,4213.424242,2645.81818155,4332.42424199,1825.69696951,5017.06060556,2851.87878759,4207.24242382,3775.03030265,4425.66666622,4.1212121208,4214.96969655,0.0,4842.93939346,8.2424242416,4525.09090864,1495.99999985,42.0,42.0,?
2017-06-01 17:05:11.874613,4545.69696924,8.2424242416,4222.69696927,4.1212121208,3937.30302991,78.3030302952,3922.36363597,20.606060604,4294.30302987,4104.72727232,4466.87878743,2571.63636338,4200.03030261,2645.81818155,4321.09090866,1825.69696951,5008.3030298,2851.87878759,4205.69696928,3775.03030265,4427.21212077,4.1212121208,4219.09090867,12.3636363624,4842.42424194,8.2424242416,4527.66666621,1495.99999985,42.0,42.0,?
2017-06-01 17:05:11.885181,4547.24242379,8.2424242416,4224.75757534,4.1212121208,3958.42424203,78.3030302952,3928.54545415,20.606060604,4304.60606018,4104.72727232,4471.51515107,2571.63636338,4208.78787837,2645.81818155,4328.30302987,1825.69696951,5022.21212071,2851.87878759,4234.03030261,3775.03030265,4431.84848441,4.1212121208,4215.99999958,12.3636363624,4841.90909042,0.0,4537.96969652,1495.99999985,42.0,42.0,?
2017-06-01 17:05:11.891903,4546.72727227,8.2424242416,4225.27272685,4.1212121208,3953.27272688,78.3030302952,3926.48484809,20.606060604,4303.57575715,4104.72727232,4472.5454541,2571.63636338,4213.93939352,2645.81818155,4331.90909048,1825.69696951,5030.96969647,2851.87878759,4241.75757533,3783.27272689,4429.78787834,4.1212121208,4213.93939352,12.3636363624,4842.42424194,0.0,4537.454545,1495.99999985,42.0,42.0,?
2017-06-01 17:05:11.898725,4547.7575753,8.2424242416,4223.7272723,4.1212121208,3941.42424203,78.3030302952,3920.81818143,20.606060604,4286.06060563,4104.72727232,4467.39393895,2571.63636338,4208.27272685,2645.81818155,4323.66666623,1825.69696951,5026.33333283,2851.87878759,4224.75757534,3783.27272689,4426.69696925,0.0,4220.1212117,12.3636363624,4843.45454497,0.0,4532.30302985,1495.99999985,42.0,42.0,?
2017-06-01 17:05:11.905717,4552.90909045,8.2424242416,4226.8181814,4.1212121208,3944.51515112,78.3030302952,3926.48484809,20.606060604,4282.45454503,4104.72727232,4469.45454501,2571.63636338,4212.90909049,2645.81818155,4326.75757532,1825.69696951,5029.42424192,2851.87878759,4223.7272723,3783.27272689,4430.81818138,0.0,4220.63636321,0.0,4844.99999952,0.0,4535.90909046,1495.99999985,42.0,42.0,?
2017-06-01 17:05:11.915537,4548.78787833,8.2424242416,4227.33333291,4.1212121208,3950.18181779,78.3030302952,3931.63636324,20.606060604,4293.78787836,4104.72727232,4466.36363592,2571.63636338,4229.39393897,2645.81818155,4339.6363632,1825.69696951,5033.54545404,2851.87878759,4231.96969655,3783.27272689,4429.78787834,0.0,4217.54545412,0.0,4842.42424194,0.0,4533.33333288,1495.99999985,42.0,42.0,?
2017-06-01 17:05:11.921826,4547.24242379,8.2424242416,4227.33333291,4.1212121208,3941.93939355,78.3030302952,3921.84848446,20.606060604,4290.18181775,4104.72727232,4457.09090865,2571.63636338,4239.18181776,2645.81818155,4343.24242381,1825.69696951,5028.39393889,2851.87878759,4225.78787837,3783.27272689,4426.18181774,0.0,4219.60606018,0.0,4844.484848,0.0,4532.81818136,1495.99999985,42.0,42.0,?
2017-06-01 17:05:11.930546,4550.84848439,8.2424242416,4228.36363594,4.1212121208,3932.66666627,78.3030302952,3919.27272688,20.606060604,4280.90909048,4104.72727232,4459.66666622,2571.63636338,4246.90909048,2645.81818155,4350.45454502,1825.69696951,5033.03030253,2851.87878759,4221.66666624,3783.27272689,4428.2424238,0.0,4219.60606018,0.0,4848.09090861,0.0,4534.87878743,1495.99999985,42.0,42.0,?
2017-06-01 17:05:11.936787,4549.30302985,8.2424242416,4227.84848443,4.1212121208,3938.84848445,78.3030302952,3931.12121173,20.606060604,4283.48484806,4104.72727232,4466.87878743,2571.63636338,4252.57575715,2645.81818155,4361.78787835,1825.69696951,5038.18181768,2851.87878759,4221.15151473,3783.27272689,4432.36363592,0.0,4218.06060564,0.0,4844.484848,0.0,4531.78787833,1495.99999985,42.0,42.0,?
2017-06-01 17:05:11.945890,4551.87878742,8.2424242416,4226.30302988,4.1212121208,3945.03030264,78.3030302952,3934.21212082,20.606060604,4286.57575715,4104.72727232,4462.2424238,2571.63636338,4239.18181776,2645.81818155,4354.06060563,1825.69696951,5023.75757526,2851.87878759,4213.424242,3783.27272689,4432.87878744,0.0,4219.09090867,0.0,4844.99999952,0.0,4531.27272682,1495.99999985,42.0,42.0,?
2017-06-01 17:05:11.955002,4557.54545409,8.2424242416,4228.87878746,4.1212121208,3935.24242385,78.3030302952,3921.84848446,20.606060604,4279.36363594,4104.72727232,4454.51515107,2571.63636338,4217.03030261,2645.81818155,4334.99999957,1825.69696951,5004.18181768,2851.87878759,4200.54545413,3783.27272689,4430.81818138,0.0,4218.06060564,0.0,4849.12121164,0.0,4533.33333288,1495.99999985,42.0,42.0,?
2017-06-01 17:05:11.961231,4563.72727227,8.2424242416,4234.54545412,4.1212121208,3916.18181779,78.3030302952,3907.93939355,20.606060604,4273.69696927,4104.72727232,4454.51515107,2571.63636338,4211.87878746,2645.81818155,4325.21212078,1825.69696951,4996.45454495,2851.87878759,4187.66666625,3783.27272689,4434.42424198,0.0,4218.57575715,0.0,4854.27272679,0.0,4537.454545,1495.99999985,42.0,42.0,?
2017-06-01 17:05:11.968835,4560.12121167,8.2424242416,4232.48484806,4.1212121208,3915.66666628,78.3030302952,3902.7878784,20.606060604,4277.30302988,4104.72727232,4461.72727228,2571.63636338,4215.99999958,2645.81818155,4327.27272684,1825.69696951,4999.54545405,2851.87878759,4188.18181776,3783.27272689,4434.9393935,0.0,4221.15151473,0.0,4851.69696921,0.0,4537.454545,1495.99999985,42.0,42.0,?
2017-06-01 17:05:11.976347,4543.63636318,8.2424242416,4223.7272723,4.1212121208,3931.12121173,78.3030302952,3905.87878749,20.606060604,4282.45454503,4104.72727232,4463.27272683,2571.63636338,4217.54545412,2645.81818155,4330.36363593,1825.69696951,5007.78787829,2851.87878759,4209.30302988,3783.27272689,4426.69696925,0.0,4215.99999958,0.0,4840.36363588,0.0,4526.12121167,1495.99999985,42.0,42.0,?
2017-06-01 17:05:11.983867,4538.99999955,8.2424242416,4221.15151473,4.1212121208,3932.66666627,78.3030302952,3916.18181779,20.606060604,4285.54545412,4104.72727232,4463.27272683,2571.63636338,4222.69696927,2645.81818155,4331.39393896,1825.69696951,5020.66666616,2851.87878759,4227.84848443,3783.27272689,4423.60606016,0.0,4213.424242,0.0,4837.27272679,0.0,4520.96969652,1495.99999985,42.0,42.0,?
2017-06-01 17:05:11.994328,4543.12121167,8.2424242416,4221.15151473,4.1212121208,3919.7878784,78.3030302952,3920.81818143,20.606060604,4281.93939351,4104.72727232,4465.8484844,2571.63636338,4230.424242,2645.81818155,4336.0303026,1825.69696951,5029.93939344,2851.87878759,4225.78787837,3783.27272689,4426.18181774,0.0,4216.51515109,0.0,4838.81818133,0.0,4521.48484803,1495.99999985,42.0,42.0,?
2017-06-01 17:05:12.000382,4540.54545409,8.2424242416,4219.60606018,4.1212121208,3915.15151476,78.3030302952,3906.393939,20.606060604,4272.15151472,4104.72727232,4462.2424238,2571.63636338,4223.21212079,2645.81818155,4336.54545411,1825.69696951,5021.18181768,2851.87878759,4212.39393897,3783.27272689,4426.18181774,0.0,4217.03030261,0.0,4837.27272679,0.0,4517.87878743,1495.99999985,42.0,42.0,?
2017-06-01 17:05:12.007761,4536.42424197,8.2424242416,4220.1212117,4.1212121208,3924.93939355,78.3030302952,3899.69696931,20.606060604,4270.09090866,4104.72727232,4456.57575713,2571.63636338,4214.45454503,2645.81818155,4327.78787836,1825.69696951,5005.72727223,2851.87878759,4201.57575716,3783.27272689,4422.57575713,0.0,4218.06060564,0.0,4836.24242376,0.0,4517.87878743,1495.99999985,42.0,42.0,?
2017-06-01 17:05:12.015651,4534.87878743,8.2424242416,4221.66666624,4.1212121208,3936.78787839,78.3030302952,3917.21212082,20.606060604,4276.78787836,4104.72727232,4461.72727228,2571.63636338,4218.06060564,2645.81818155,4323.66666623,1825.69696951,5006.75757526,2851.87878759,4202.60606019,3783.27272689,4422.57575713,0.0,4215.99999958,0.0,4836.24242376,0.0,4520.96969652,1495.99999985,42.0,42.0,?
2017-06-01 17:05:12.024810,4538.99999955,8.2424242416,4222.69696927,4.1212121208,3938.33333294,78.3030302952,3919.7878784,20.606060604,4275.24242381,4104.72727232,4462.75757531,2571.63636338,4214.96969655,2645.81818155,4325.21212078,1825.69696951,5006.75757526,2851.87878759,4207.75757534,3783.27272689,4425.15151471,0.0,4214.96969655,0.0,4836.75757527,0.0,4523.03030258,1495.99999985,42.0,42.0,?
2017-06-01 17:05:12.031817,4540.03030258,8.2424242416,4220.63636321,4.1212121208,3932.15151476,78.3030302952,3906.393939,20.606060604,4275.24242381,4104.72727232,4456.57575713,2571.63636338,4215.48484806,2645.81818155,4331.39393896,1825.69696951,5001.09090859,2851.87878759,4207.75757534,3783.27272689,4422.57575713,0.0,4215.99999958,0.0,4834.69696921,0.0,4520.454545,1495.99999985,42.0,42.0,?
2017-06-01 17:05:12.040394,4538.48484803,8.2424242416,4221.66666624,4.1212121208,3923.90909052,78.3030302952,3909.48484809,20.606060604,4283.99999957,4104.72727232,4459.15151471,2571.63636338,4235.57575715,2645.81818155,4344.27272684,1825.69696951,5010.87878738,2851.87878759,4204.15151473,3783.27272689,4422.57575713,0.0,4215.48484806,0.0,4835.72727224,0.0,4518.39393894,1495.99999985,42.0,42.0,?
2017-06-01 17:05:12.045807,4541.57575712,8.2424242416,4224.75757534,4.1212121208,3915.66666628,78.3030302952,3909.48484809,20.606060604,4282.45454503,4104.72727232,4460.18181774,2571.63636338,4243.30302988,2645.81818155,4349.42424199,1825.69696951,5019.63636313,2851.87878759,4198.99999958,3783.27272689,4428.2424238,0.0,4216.51515109,0.0,4839.84848436,0.0,4518.90909046,1495.99999985,42.0,42.0,?
2017-06-01 17:05:12.053915,4539.51515106,8.2424242416,4223.21212079,4.1212121208,3915.66666628,78.3030302952,3899.18181779,20.606060604,4281.93939351,4104.72727232,4458.12121168,2571.63636338,4230.424242,2645.81818155,4341.69696926,1825.69696951,5010.87878738,2851.87878759,4198.48484806,3783.27272689,4427.72727228,0.0,4214.45454503,0.0,4837.27272679,0.0,4514.78787834,1495.99999985,42.0,42.0,?
2017-06-01 17:05:12.064361,4541.06060561,8.2424242416,4223.21212079,4.1212121208,3922.36363597,78.3030302952,3905.36363597,20.606060604,4293.27272684,4104.72727232,4468.42424198,2571.63636338,4225.78787837,2645.81818155,4339.12121169,1825.69696951,5008.3030298,2851.87878759,4201.57575716,3783.27272689,4427.72727228,0.0,4212.39393897,0.0,4838.30302982,0.0,4517.36363591,1495.99999985,42.0,42.0,?
2017-06-01 17:05:12.069780,4542.09090864,8.2424242416,4221.66666624,4.1212121208,3926.99999961,78.3030302952,3916.18181779,20.606060604,4295.3333329,4104.72727232,4478.72727228,2571.63636338,4224.75757534,2645.81818155,4343.24242381,1825.69696951,5019.63636313,2851.87878759,4207.75757534,3783.27272689,4429.78787834,0.0,4214.96969655,0.0,4843.45454497,0.0,4521.48484803,1495.99999985,42.0,42.0,?
2017-06-01 17:05:12.077945,4541.57575712,8.2424242416,4220.63636321,4.1212121208,3923.90909052,78.3030302952,3905.87878749,20.606060604,4279.87878745,4104.72727232,4465.8484844,2571.63636338,4210.33333291,2645.81818155,4335.51515108,1825.69696951,5017.57575707,2851.87878759,4215.48484806,3783.27272689,4429.78787834,0.0,4215.99999958,0.0,4841.39393891,0.0,4521.99999955,1495.99999985,42.0,42.0,?
2017-06-01 17:05:12.085945,4543.12121167,8.2424242416,4225.27272685,4.1212121208,3919.27272688,78.3030302952,3900.21212082,20.606060604,4274.7272723,4104.72727232,4456.06060561,2571.63636338,4205.69696928,2645.81818155,4326.75757532,1825.69696951,5005.21212071,2851.87878759,4211.36363594,3783.27272689,4430.30302986,0.0,4214.45454503,0.0,4837.27272679,0.0,4520.454545,1495.99999985,42.0,42.0,?
2017-06-01 17:05:12.096087,4541.57575712,8.2424242416,4225.27272685,4.1212121208,3924.93939355,78.3030302952,3907.93939355,20.606060604,4286.57575715,4104.72727232,4466.87878743,2571.63636338,4217.54545412,2645.81818155,4332.93939351,1825.69696951,5007.27272677,2851.87878759,4204.15151473,3783.27272689,4428.75757531,0.0,4217.03030261,0.0,4838.81818133,0.0,4516.8484844,1495.99999985,42.0,42.0,?
2017-06-01 17:05:12.102396,4541.06060561,8.2424242416,4224.24242382,4.1212121208,3937.30302991,78.3030302952,3902.7878784,20.606060604,4286.06060563,4104.72727232,4465.8484844,2571.63636338,4219.60606018,2645.81818155,4336.54545411,1825.69696951,5014.9999995,2851.87878759,4212.39393897,3783.27272689,4427.72727228,0.0,4218.06060564,0.0,4841.39393891,0.0,4521.99999955,1495.99999985,42.0,42.0,?
2017-06-01 17:05:12.111526,4539.51515106,8.2424242416,4222.69696927,4.1212121208,3942.45454506,78.3030302952,3901.75757537,20.606060604,4277.30302988,4104.72727232,4449.87878743,2571.63636338,4219.09090867,2645.81818155,4332.93939351,1825.69696951,5019.63636313,2851.87878759,4230.93939352,3783.27272689,4428.2424238,0.0,4214.96969655,0.0,4839.33333285,0.0,4525.60606015,1495.99999985,42.0,42.0,?
2017-06-01 17:05:12.116973,4539.51515106,8.2424242416,4222.69696927,4.1212121208,3936.27272688,78.3030302952,3915.66666628,20.606060604,4271.63636321,4104.72727232,4446.78787834,2571.63636338,4228.36363594,2645.81818155,4338.60606017,1825.69696951,5023.75757526,2851.87878759,4231.96969655,3783.27272689,4428.2424238,0.0,4215.99999958,0.0,4839.33333285,0.0,4522.51515106,1495.99999985,42.0,42.0,?
2017-06-01 17:05:12.124842,4542.60606015,8.2424242416,4223.21212079,4.1212121208,3934.21212082,78.3030302952,3914.63636324,20.606060604,4263.90909048,4104.72727232,4443.18181774,2571.63636338,4225.27272685,2645.81818155,4341.69696926,1825.69696951,5018.6060601,2851.87878759,4217.54545412,3783.27272689,4428.2424238,0.0,4218.57575715,0.0,4841.90909042,0.0,4521.48484803,1495.99999985,42.0,42.0,?
2017-06-01 17:05:12.134956,4534.36363591,8.2424242416,4220.1212117,4.1212121208,3942.45454506,78.3030302952,3905.36363597,20.606060604,4261.33333291,4104.72727232,4432.36363592,2571.63636338,4213.93939352,2645.81818155,4336.0303026,1825.69696951,5014.48484798,2851.87878759,4220.63636321,3783.27272689,4425.66666622,0.0,4218.06060564,0.0,4838.81818133,0.0,4519.93939349,1495.99999985,42.0,42.0,?
2017-06-01 17:05:12.140017,4535.39393894,8.2424242416,4220.1212117,4.1212121208,3944.51515112,78.3030302952,3907.42424203,20.606060604,4269.06060563,4104.72727232,4441.63636319,2571.63636338,4219.60606018,2645.81818155,4339.12121169,1825.69696951,5018.6060601,2851.87878759,4229.39393897,3783.27272689,4426.18181774,0.0,4218.06060564,0.0,4838.81818133,0.0,4520.96969652,1495.99999985,42.0,42.0,?
2017-06-01 17:05:12.147934,4543.12121167,8.2424242416,4224.24242382,4.1212121208,3932.66666627,78.3030302952,3909.99999961,20.606060604,4280.90909048,4104.72727232,4460.18181774,2571.63636338,4229.90909049,2645.81818155,4342.72727229,1825.69696951,5019.63636313,2851.87878759,4218.57575715,3783.27272689,4427.21212077,0.0,4217.54545412,0.0,4838.81818133,0.0,4520.96969652,1495.99999985,42.0,42.0,?
2017-06-01 17:05:12.156472,4540.54545409,8.2424242416,4224.75757534,4.1212121208,3926.48484809,78.3030302952,3909.48484809,20.606060604,4286.57575715,4104.72727232,4465.33333289,2571.63636338,4228.87878746,2645.81818155,4339.12121169,1825.69696951,5016.03030253,2851.87878759,4213.93939352,3783.27272689,4427.21212077,0.0,4214.45454503,0.0,4836.24242376,0.0,4518.90909046,1495.99999985,42.0,42.0,?
2017-06-01 17:05:12.164394,4537.96969652,8.2424242416,4221.15151473,4.1212121208,3935.24242385,78.3030302952,3912.06060567,20.606060604,4283.48484806,4104.72727232,4465.8484844,2571.63636338,4225.78787837,2645.81818155,4336.0303026,1825.69696951,5013.45454495,2851.87878759,4222.18181776,3783.27272689,4426.69696925,0.0,4215.48484806,0.0,4838.81818133,0.0,4521.99999955,1495.99999985,42.0,42.0,?
2017-06-01 17:05:12.172336,4536.93939349,8.2424242416,4219.60606018,4.1212121208,3940.393939,78.3030302952,3907.42424203,20.606060604,4282.96969654,4104.72727232,4470.99999955,2571.63636338,4226.8181814,2645.81818155,4336.0303026,1825.69696951,5014.48484798,2851.87878759,4221.15151473,3783.27272689,4424.63636319,0.0,4216.51515109,0.0,4840.36363588,0.0,4521.48484803,1495.99999985,42.0,42.0,?
2017-06-01 17:05:12.178806,4539.51515106,8.2424242416,4221.66666624,4.1212121208,3940.90909052,78.3030302952,3909.99999961,20.606060604,4291.7272723,4104.72727232,4475.63636319,2571.63636338,4232.48484806,2645.81818155,4343.75757532,1825.69696951,5024.27272677,2851.87878759,4225.27272685,3783.27272689,4427.21212077,0.0,4215.48484806,0.0,4840.36363588,0.0,4521.99999955,1495.99999985,42.0,42.0,?
2017-06-01 17:05:12.187754,4538.99999955,8.2424242416,4222.69696927,4.1212121208,3950.6969693,78.3030302952,3925.45454506,20.606060604,4293.78787836,4104.72727232,4474.60606016,2571.63636338,4244.84848442,2645.81818155,4358.69696926,1825.69696951,5037.15151465,2851.87878759,4241.24242382,3783.27272689,4427.72727228,0.0,4215.99999958,0.0,4839.84848436,0.0,4525.09090864,1495.99999985,42.0,42.0,?
2017-06-01 17:05:12.196475,4534.36363591,8.2424242416,4223.21212079,4.1212121208,3958.93939354,78.3030302952,3928.03030264,20.606060604,4281.93939351,4104.72727232,4467.90909046,2571.63636338,4249.48484806,2645.81818155,4358.69696926,1825.69696951,5036.12121162,2851.87878759,4241.24242382,3783.27272689,4423.60606016,0.0,4217.03030261,0.0,4840.36363588,0.0,4523.03030258,1495.99999985,42.0,42.0,?
2017-06-01 17:05:12.202871,4536.93939349,8.2424242416,4224.24242382,4.1212121208,3949.66666627,78.3030302952,3914.12121173,20.606060604,4276.27272685,4104.72727232,4458.63636319,2571.63636338,4238.15151473,2645.81818155,4343.24242381,1825.69696951,5020.15151465,2851.87878759,4222.18181776,3783.27272689,4425.66666622,0.0,4214.45454503,0.0,4843.45454497,0.0,4520.454545,1495.99999985,42.0,42.0,?
2017-06-01 17:05:12.210986,4537.454545,8.2424242416,4222.69696927,4.1212121208,3938.33333294,78.3030302952,3903.81818143,20.606060604,4276.27272685,4104.72727232,4451.93939349,2571.63636338,4226.30302988,2645.81818155,4335.51515108,1825.69696951,5007.27272677,2851.87878759,4218.06060564,3783.27272689,4428.2424238,0.0,4213.424242,0.0,4839.84848436,0.0,4519.42424197,1495.99999985,42.0,42.0,?
2017-06-01 17:05:12.219518,4537.96969652,8.2424242416,4223.7272723,4.1212121208,3936.27272688,78.3030302952,3904.33333294,20.606060604,4271.63636321,4104.72727232,4450.90909046,2571.63636338,4225.27272685,2645.81818155,4341.69696926,1825.69696951,5009.84848435,2851.87878759,4231.45454503,3783.27272689,4427.72727228,0.0,4217.03030261,0.0,4837.7878783,0.0,4521.48484803,1495.99999985,42.0,42.0,?
2017-06-01 17:05:12.226847,4537.96969652,8.2424242416,4223.7272723,4.1212121208,3936.78787839,78.3030302952,3916.69696931,20.606060604,4273.69696927,4104.72727232,4457.09090865,2571.63636338,4229.90909049,2645.81818155,4347.36363593,1825.69696951,5018.09090859,2851.87878759,4232.48484806,3783.27272689,4428.2424238,0.0,4218.57575715,0.0,4838.81818133,0.0,4521.99999955,1495.99999985,42.0,42.0,?
2017-06-01 17:05:12.234344,4535.39393894,8.2424242416,4220.1212117,4.1212121208,3940.393939,78.3030302952,3926.48484809,20.606060604,4283.99999957,4104.72727232,4466.36363592,2571.63636338,4227.84848443,2645.81818155,4343.24242381,1825.69696951,5013.45454495,2851.87878759,4220.63636321,3783.27272689,4428.2424238,0.0,4216.51515109,0.0,4835.21212073,0.0,4519.93939349,1495.99999985,42.0,42.0,?
2017-06-01 17:05:12.241840,4537.454545,8.2424242416,4223.7272723,4.1212121208,3935.75757536,78.3030302952,3918.75757537,20.606060604,4290.18181775,4104.72727232,4465.8484844,2571.63636338,4221.66666624,2645.81818155,4334.48484805,1825.69696951,5003.66666617,2851.87878759,4213.93939352,3783.27272689,4427.21212077,0.0,4215.48484806,0.0,4835.72727224,0.0,4520.96969652,1495.99999985,42.0,42.0,?
2017-06-01 17:05:12.251763,4534.87878743,8.2424242416,4222.18181776,4.1212121208,3928.03030264,78.3030302952,3910.51515112,20.606060604,4291.21212078,4104.72727232,4465.8484844,2571.63636338,4226.30302988,2645.81818155,4336.54545411,1825.69696951,5009.84848435,2851.87878759,4219.60606018,3783.27272689,4424.63636319,0.0,4215.48484806,0.0,4838.30302982,0.0,4517.87878743,1495.99999985,42.0,42.0,?
2017-06-01 17:05:12.258586,4532.81818136,8.2424242416,4218.57575715,4.1212121208,3930.0909087,78.3030302952,3915.66666628,20.606060604,4291.7272723,4104.72727232,4472.03030258,2571.63636338,4230.93939352,2645.81818155,4339.12121169,1825.69696951,5019.63636313,2851.87878759,4230.93939352,3783.27272689,4425.66666622,0.0,4214.45454503,0.0,4840.87878739,0.0,4518.90909046,1495.99999985,42.0,42.0,?
2017-06-01 17:05:12.264987,4537.454545,8.2424242416,4224.24242382,4.1212121208,3931.63636324,78.3030302952,3919.27272688,20.606060604,4297.39393896,4104.72727232,4477.18181773,2571.63636338,4221.66666624,2645.81818155,4335.51515108,1825.69696951,5019.12121162,2851.87878759,4241.24242382,3783.27272689,4427.72727228,0.0,4214.96969655,0.0,4842.93939346,0.0,4524.57575712,1495.99999985,42.0,42.0,?
2017-06-01 17:05:12.275925,4535.39393894,8.2424242416,4225.78787837,4.1212121208,3924.93939355,78.3030302952,3918.75757537,20.606060604,4297.39393896,4104.72727232,4473.06060561,2571.63636338,4218.57575715,2645.81818155,4336.0303026,1825.69696951,5018.09090859,2851.87878759,4229.90909049,3783.27272689,4425.66666622,0.0,4217.03030261,0.0,4837.7878783,0.0,4518.39393894,1495.99999985,42.0,42.0,?
2017-06-01 17:05:12.281869,4536.93939349,8.2424242416,4223.21212079,4.1212121208,3926.48484809,78.3030302952,3912.57575718,20.606060604,4285.0303026,4104.72727232,4463.27272683,2571.63636338,4226.30302988,2645.81818155,4339.12121169,1825.69696951,5014.9999995,2851.87878759,4207.24242382,3783.27272689,4426.69696925,0.0,4217.03030261,0.0,4837.7878783,0.0,4518.90909046,1495.99999985,42.0,42.0,?
2017-06-01 17:05:12.289076,4541.06060561,12.3636363624,4223.21212079,4.1212121208,3937.30302991,78.3030302952,3906.90909052,20.606060604,4283.99999957,4104.72727232,4462.75757531,2571.63636338,4236.60606018,2645.81818155,4347.36363593,1825.69696951,5015.51515101,2851.87878759,4214.45454503,3783.27272689,4427.21212077,0.0,4215.99999958,0.0,4840.87878739,0.0,4526.12121167,1495.99999985,42.0,42.0,?
2017-06-01 17:05:12.299280,4540.54545409,12.3636363624,4223.7272723,12.3636363624,3938.33333294,78.3030302952,3915.15151476,20.606060604,4295.3333329,4104.72727232,4475.12121167,2571.63636338,4253.60606018,2645.81818155,4359.21212078,1825.69696951,5027.36363586,2851.87878759,4230.424242,3783.27272689,4427.21212077,0.0,4215.48484806,0.0,4839.84848436,0.0,4523.54545409,1495.99999985,42.0,42.0,?
2017-06-01 17:05:12.306925,4541.06060561,12.3636363624,4224.24242382,12.3636363624,3937.81818142,78.3030302952,3925.96969658,20.606060604,4293.27272684,4104.72727232,4479.75757531,2571.63636338,4262.36363594,2645.81818155,4362.30302987,1825.69696951,5037.15151465,2851.87878759,4227.84848443,3783.27272689,4429.27272683,0.0,4214.45454503,0.0,4839.84848436,0.0,4522.51515106,1483.63636349,42.0,42.0,?
2017-06-01 17:05:12.312522,4541.06060561,12.3636363624,4223.21212079,12.3636363624,3941.42424203,65.9393939328,3921.84848446,20.606060604,4286.06060563,4104.72727232,4473.57575713,2571.63636338,4256.18181776,2645.81818155,4361.27272684,1825.69696951,5036.12121162,2851.87878759,4232.48484806,3783.27272689,4426.69696925,0.0,4213.93939352,0.0,4841.90909042,0.0,4524.57575712,1483.63636349,42.0,42.0,?
2017-06-01 17:05:12.319976,4544.1515147,12.3636363624,4224.24242382,12.3636363624,3930.60606021,65.9393939328,3912.57575718,16.4848484832,4287.09090866,4104.72727232,4471.51515107,2571.63636338,4252.57575715,2645.81818155,4360.75757532,1825.69696951,5031.9999995,2851.87878759,4239.69696927,3783.27272689,4428.2424238,0.0,4214.96969655,0.0,4842.93939346,0.0,4524.06060561,1483.63636349,42.0,42.0,?
2017-06-01 17:05:12.328686,4543.12121167,12.3636363624,4226.8181814,12.3636363624,3925.45454506,65.9393939328,3917.21212082,16.4848484832,4294.81818139,4108.84848444,4476.1515147,2571.63636338,4251.54545412,2645.81818155,4354.57575714,1825.69696951,5023.24242374,2851.87878759,4222.69696927,3783.27272689,4431.33333289,0.0,4215.48484806,0.0,4842.42424194,0.0,4521.48484803,1483.63636349,42.0,42.0,?
2017-06-01 17:05:12.336163,4541.57575712,12.3636363624,4225.27272685,12.3636363624,3944.51515112,65.9393939328,3931.12121173,16.4848484832,4305.12121169,4108.84848444,4484.90909046,2579.87878762,4253.60606018,2645.81818155,4354.06060563,1825.69696951,5022.72727222,2851.87878759,4212.39393897,3783.27272689,4428.2424238,0.0,4213.424242,0.0,4843.96969649,0.0,4524.06060561,1483.63636349,42.0,42.0,?
2017-06-01 17:05:12.346037,4547.24242379,12.3636363624,4225.27272685,12.3636363624,3948.12121173,65.9393939328,3934.21212082,16.4848484832,4307.18181775,4108.84848444,4493.1515147,2579.87878762,4257.7272723,2645.81818155,4360.24242381,1825.69696951,5031.9999995,2851.87878759,4228.36363594,3783.27272689,4428.75757531,0.0,4213.424242,0.0,4847.06060558,0.0,4528.69696924,1483.63636349,42.0,42.0,?
2017-06-01 17:05:12.351555,4545.69696924,12.3636363624,4226.30302988,12.3636363624,3928.03030264,65.9393939328,3916.69696931,16.4848484832,4299.45454502,4108.84848444,4489.03030258,2579.87878762,4246.90909048,2645.81818155,4348.90909047,1821.57575739,5021.69696919,2851.87878759,4229.39393897,3783.27272689,4429.27272683,0.0,4215.99999958,0.0,4844.99999952,0.0,4525.09090864,1483.63636349,42.0,42.0,?
2017-06-01 17:05:12.358993,4547.7575753,12.3636363624,4227.33333291,12.3636363624,3929.06060567,65.9393939328,3906.393939,16.4848484832,4297.90909048,4108.84848444,4482.8484844,2579.87878762,4223.21212079,2645.81818155,4330.87878745,1821.57575739,5003.66666617,2860.12121184,4219.60606018,3783.27272689,4428.2424238,0.0,4218.57575715,0.0,4845.51515103,0.0,4526.12121167,1483.63636349,42.0,42.0,?
2017-06-01 17:05:12.369134,4548.78787833,12.3636363624,4226.30302988,12.3636363624,3944.51515112,65.9393939328,3920.81818143,16.4848484832,4299.96969654,4108.84848444,4488.51515107,2579.87878762,4220.1212117,2645.81818155,4334.99999957,1821.57575739,5012.93939344,2860.12121184,4229.90909049,3795.63636326,4428.2424238,0.0,4217.03030261,0.0,4846.54545406,0.0,4530.24242379,1483.63636349,42.0,42.0,?
2017-06-01 17:05:12.375063,4545.18181773,12.3636363624,4224.75757534,12.3636363624,3941.93939355,65.9393939328,3929.57575718,16.4848484832,4300.48484805,4108.84848444,4491.60606016,2579.87878762,4237.63636321,2645.81818155,4348.39393896,1821.57575739,5025.81818132,2860.12121184,4235.06060564,3795.63636326,4429.78787834,12.3636363624,4215.48484806,0.0,4842.42424194,0.0,4528.18181773,1483.63636349,42.0,42.0,?
2017-06-01 17:05:12.382909,4548.78787833,12.3636363624,4225.78787837,12.3636363624,3929.57575718,65.9393939328,3914.63636324,16.4848484832,4293.78787836,4108.84848444,4475.63636319,2579.87878762,4241.75757533,2645.81818155,4345.30302987,1821.57575739,5012.42424192,2860.12121184,4215.99999958,3795.63636326,4432.36363592,12.3636363624,4215.99999958,0.0,4842.42424194,0.0,4528.18181773,1483.63636349,42.0,42.0,?
2017-06-01 17:05:12.392701,4548.78787833,12.3636363624,4225.27272685,12.3636363624,3927.51515112,65.9393939328,3904.84848446,16.4848484832,4280.39393897,4108.84848444,4460.18181774,2579.87878762,4236.60606018,2645.81818155,4340.66666623,1821.57575739,5004.18181768,2860.12121184,4209.30302988,3795.63636326,4430.30302986,12.3636363624,4217.03030261,0.0,4844.484848,8.2424242416,4525.60606015,1483.63636349,42.0,42.0,?
2017-06-01 17:05:12.397907,4547.24242379,12.3636363624,4226.30302988,12.3636363624,3932.15151476,65.9393939328,3914.12121173,16.4848484832,4277.30302988,4108.84848444,4463.78787834,2579.87878762,4240.7272723,2645.81818155,4349.9393935,1821.57575739,5013.45454495,2860.12121184,4221.15151473,3795.63636326,4429.27272683,12.3636363624,4218.06060564,0.0,4843.45454497,8.2424242416,4525.09090864,1483.63636349,42.0,42.0,?
2017-06-01 17:05:12.406587,4547.7575753,12.3636363624,4227.84848443,12.3636363624,3939.87878748,65.9393939328,3924.42424203,16.4848484832,4285.0303026,4108.84848444,4472.5454541,2579.87878762,4251.03030261,2645.81818155,4359.21212078,1821.57575739,5021.69696919,2860.12121184,4224.75757534,3795.63636326,4430.30302986,8.2424242416,4215.48484806,0.0,4841.90909042,8.2424242416,4530.24242379,1483.63636349,42.0,42.0,?
2017-06-01 17:05:12.414685,4548.27272682,12.3636363624,4226.8181814,12.3636363624,3951.72727233,65.9393939328,3928.54545415,16.4848484832,4291.21212078,4108.84848444,4474.09090864,2579.87878762,4254.63636321,2645.81818155,4361.27272684,1821.57575739,5028.90909041,2860.12121184,4230.93939352,3795.63636326,4428.75757531,8.2424242416,4217.54545412,0.0,4842.42424194,8.2424242416,4532.81818136,1483.63636349,42.0,42.0,?
2017-06-01 17:05:12.421973,4550.84848439,12.3636363624,4228.87878746,12.3636363624,3952.75757536,65.9393939328,3922.87878749,16.4848484832,4287.09090866,4108.84848444,4470.99999955,2579.87878762,4242.78787836,2645.81818155,4353.03030259,1821.57575739,5025.81818132,2860.12121184,4236.09090867,3795.63636326,4430.81818138,8.2424242416,4222.69696927,0.0,4844.484848,8.2424242416,4534.36363591,1483.63636349,42.0,42.0,?
2017-06-01 17:05:12.431756,4548.78787833,12.3636363624,4226.8181814,12.3636363624,3938.84848445,65.9393939328,3917.21212082,16.4848484832,4282.45454503,4108.84848444,4469.96969652,2579.87878762,4230.93939352,2645.81818155,4342.21212078,1821.57575739,5015.51515101,2860.12121184,4227.33333291,3795.63636326,4431.33333289,8.2424242416,4219.09090867,0.0,4843.96969649,8.2424242416,4529.21212076,1483.63636349,42.0,42.0,?
2017-06-01 17:05:12.437321,4546.72727227,12.3636363624,4224.24242382,12.3636363624,3925.96969658,65.9393939328,3918.24242385,16.4848484832,4287.60606018,4108.84848444,4474.60606016,2579.87878762,4228.87878746,2645.81818155,4336.54545411,1821.57575739,5003.66666617,2860.12121184,4213.424242,3795.63636326,4429.78787834,8.2424242416,4214.96969655,0.0,4843.45454497,8.2424242416,4526.12121167,1483.63636349,42.0,42.0,?
2017-06-01 17:05:12.445268,4550.33333288,12.3636363624,4225.78787837,12.3636363624,3930.0909087,65.9393939328,3914.12121173,16.4848484832,4291.21212078,4108.84848444,4475.63636319,2579.87878762,4216.51515109,2645.81818155,4324.69696926,1821.57575739,4985.63636314,2860.12121184,4204.15151473,3795.63636326,4428.75757531,8.2424242416,4217.54545412,0.0,4844.484848,8.2424242416,4528.18181773,1483.63636349,42.0,42.0,?
2017-06-01 17:05:12.453546,4547.24242379,12.3636363624,4226.30302988,12.3636363624,3934.72727233,65.9393939328,3909.48484809,16.4848484832,4280.39393897,4108.84848444,4468.42424198,2579.87878762,4192.30302988,2645.81818155,4307.69696927,1821.57575739,4973.78787829,2860.12121184,4204.15151473,3795.63636326,4426.69696925,8.2424242416,4215.99999958,0.0,4843.96969649,8.2424242416,4524.57575712,1483.63636349,42.0,42.0,?
2017-06-01 17:05:12.464436,4545.69696924,12.3636363624,4226.8181814,12.3636363624,3925.45454506,65.9393939328,3909.99999961,16.4848484832,4271.12121169,4108.84848444,4460.69696925,2579.87878762,4185.09090867,2645.81818155,4302.0303026,1821.57575739,4978.42424193,2860.12121184,4206.72727231,3795.63636326,4429.27272683,8.2424242416,4212.90909049,0.0,4847.06060558,8.2424242416,4526.12121167,1483.63636349,42.0,42.0,?
2017-06-01 17:05:12.472242,4544.66666621,12.3636363624,4226.8181814,12.3636363624,3929.57575718,65.9393939328,3912.57575718,16.4848484832,4278.33333291,4108.84848444,4461.21212077,2579.87878762,4208.27272685,2645.81818155,4317.48484805,1821.57575739,4990.27272677,2860.12121184,4203.1212117,3795.63636326,4429.27272683,8.2424242416,4215.99999958,0.0,4844.484848,8.2424242416,4529.21212076,1483.63636349,42.0,42.0,?
2017-06-01 17:05:12.477201,4545.69696924,12.3636363624,4227.33333291,12.3636363624,3943.99999961,65.9393939328,3911.03030264,16.4848484832,4277.81818139,4108.84848444,4460.69696925,2579.87878762,4234.54545412,2645.81818155,4334.48484805,1821.57575739,4997.9999995,2860.12121184,4204.66666625,3795.63636326,4427.72727228,8.2424242416,4217.03030261,0.0,4841.39393891,8.2424242416,4528.18181773,1483.63636349,42.0,42.0,?
2017-06-01 17:05:12.484798,4550.33333288,12.3636363624,4227.33333291,12.3636363624,3944.51515112,65.9393939328,3909.48484809,16.4848484832,4265.45454503,4108.84848444,4453.99999955,2579.87878762,4244.33333291,2645.81818155,4341.69696926,1821.57575739,5004.6969692,2860.12121184,4217.54545412,3795.63636326,4429.78787834,8.2424242416,4213.93939352,0.0,4845.51515103,8.2424242416,4527.1515147,1483.63636349,42.0,42.0,?
2017-06-01 17:05:12.492048,4544.1515147,12.3636363624,4223.21212079,12.3636363624,3935.75757536,65.9393939328,3905.87878749,16.4848484832,4264.93939351,4108.84848444,4451.93939349,2579.87878762,4246.90909048,2645.81818155,4345.81818138,1821.57575739,5012.42424192,2860.12121184,4227.84848443,3795.63636326,4429.27272683,8.2424242416,4217.03030261,0.0,4841.90909042,8.2424242416,4523.54545409,1483.63636349,42.0,42.0,?
2017-06-01 17:05:12.502052,4540.03030258,12.3636363624,4223.21212079,12.3636363624,3925.45454506,65.9393939328,3895.57575719,16.4848484832,4264.93939351,4108.84848444,4456.06060561,2579.87878762,4248.45454503,2645.81818155,4345.30302987,1821.57575739,5016.03030253,2860.12121184,4223.7272723,3795.63636326,4427.72727228,8.2424242416,4223.21212079,0.0,4838.81818133,8.2424242416,4523.03030258,1483.63636349,42.0,42.0,?
2017-06-01 17:05:12.508037,4542.09090864,12.3636363624,4223.21212079,12.3636363624,3926.99999961,65.9393939328,3898.15151476,16.4848484832,4266.99999957,4108.84848444,4460.69696925,2579.87878762,4248.96969654,2645.81818155,4342.72727229,1821.57575739,5018.09090859,2860.12121184,4216.51515109,3795.63636326,4425.66666622,8.2424242416,4221.15151473,0.0,4841.39393891,8.2424242416,4523.03030258,1483.63636349,42.0,42.0,?
2017-06-01 17:05:12.517813,4542.60606015,12.3636363624,4221.66666624,12.3636363624,3944.51515112,65.9393939328,3914.12121173,16.4848484832,4279.87878745,4108.84848444,4466.36363592,2579.87878762,4244.33333291,2645.81818155,4341.69696926,1821.57575739,5018.09090859,2860.12121184,4223.21212079,3795.63636326,4425.15151471,8.2424242416,4217.54545412,0.0,4843.45454497,8.2424242416,4525.09090864,1483.63636349,42.0,42.0,?
2017-06-01 17:05:12.523032,4546.21212076,12.3636363624,4225.27272685,12.3636363624,3943.99999961,65.9393939328,3919.7878784,16.4848484832,4287.60606018,4108.84848444,4476.66666622,2579.87878762,4239.69696927,2645.81818155,4342.21212078,1821.57575739,5016.54545404,2860.12121184,4235.06060564,3795.63636326,4427.72727228,8.2424242416,4219.09090867,0.0,4843.96969649,8.2424242416,4527.66666621,1483.63636349,42.0,42.0,?
2017-06-01 17:05:12.531151,4544.66666621,12.3636363624,4224.75757534,12.3636363624,3926.48484809,65.9393939328,3914.12121173,16.4848484832,4287.60606018,4108.84848444,4484.39393895,2579.87878762,4234.03030261,2645.81818155,4342.21212078,1821.57575739,5011.39393889,2860.12121184,4223.7272723,3795.63636326,4427.21212077,8.2424242416,4218.57575715,0.0,4839.33333285,8.2424242416,4520.454545,1483.63636349,42.0,42.0,?
2017-06-01 17:05:12.539987,4545.18181773,12.3636363624,4223.7272723,12.3636363624,3931.12121173,65.9393939328,3909.99999961,16.4848484832,4285.0303026,4108.84848444,4477.69696925,2579.87878762,4217.03030261,2645.81818155,4333.45454502,1821.57575739,5002.12121162,2860.12121184,4206.72727231,3795.63636326,4425.66666622,8.2424242416,4214.96969655,0.0,4837.7878783,8.2424242416,4520.454545,1483.63636349,42.0,42.0,?
2017-06-01 17:05:12.547400,4544.1515147,12.3636363624,4224.75757534,12.3636363624,3951.72727233,65.9393939328,3917.21212082,16.4848484832,4291.21212078,4108.84848444,4473.57575713,2579.87878762,4204.15151473,2645.81818155,4324.69696926,1821.57575739,5000.57575708,2860.12121184,4222.69696927,3795.63636326,4426.69696925,8.2424242416,4214.45454503,0.0,4840.36363588,8.2424242416,4526.63636318,1483.63636349,42.0,42.0,?
2017-06-01 17:05:12.557383,4539.51515106,12.3636363624,4224.24242382,12.3636363624,3952.24242385,65.9393939328,3922.87878749,16.4848484832,4295.84848442,4108.84848444,4480.78787834,2579.87878762,4209.30302988,2645.81818155,4330.36363593,1821.57575739,5009.33333283,2860.12121184,4236.09090867,3795.63636326,4427.72727228,8.2424242416,4221.15151473,0.0,4839.84848436,8.2424242416,4524.06060561,1483.63636349,42.0,42.0,?
2017-06-01 17:05:12.564018,4542.09090864,12.3636363624,4224.24242382,12.3636363624,3929.06060567,65.9393939328,3912.57575718,16.4848484832,4283.99999957,4108.84848444,4477.18181773,2579.87878762,4219.09090867,2645.81818155,4339.12121169,1821.57575739,5011.90909041,2860.12121184,4218.06060564,3795.63636326,4427.72727228,8.2424242416,4221.15151473,0.0,4838.81818133,8.2424242416,4520.96969652,1483.63636349,42.0,42.0,?
2017-06-01 17:05:12.571025,4543.12121167,12.3636363624,4224.24242382,12.3636363624,3919.27272688,65.9393939328,3908.96969658,16.4848484832,4274.7272723,4108.84848444,4465.33333289,2579.87878762,4229.90909049,2645.81818155,4341.69696926,1821.57575739,5012.93939344,2860.12121184,4214.45454503,3795.63636326,4425.15151471,8.2424242416,4215.99999958,0.0,4838.30302982,8.2424242416,4519.42424197,1483.63636349,42.0,42.0,?
2017-06-01 17:05:12.578374,4542.60606015,12.3636363624,4224.75757534,12.3636363624,3936.27272688,65.9393939328,3915.66666628,16.4848484832,4278.33333291,4108.84848444,4463.27272683,2579.87878762,4241.75757533,2645.81818155,4342.72727229,1821.57575739,5014.9999995,2860.12121184,4224.75757534,3795.63636326,4428.2424238,8.2424242416,4218.57575715,0.0,4840.87878739,8.2424242416,4522.51515106,1483.63636349,42.0,42.0,?
2017-06-01 17:05:12.589594,4541.06060561,12.3636363624,4222.69696927,12.3636363624,3944.51515112,65.9393939328,3911.03030264,16.4848484832,4278.33333291,4108.84848444,4463.27272683,2579.87878762,4241.24242382,2645.81818155,4338.09090866,1821.57575739,5001.60606011,2860.12121184,4208.78787837,3795.63636326,4428.2424238,8.2424242416,4222.18181776,0.0,4839.84848436,8.2424242416,4523.03030258,1483.63636349,42.0,42.0,?
2017-06-01 17:05:12.596029,4538.48484803,12.3636363624,4220.1212117,12.3636363624,3934.72727233,65.9393939328,3906.90909052,16.4848484832,4280.90909048,4108.84848444,4462.2424238,2579.87878762,4235.06060564,2645.81818155,4333.96969654,1821.57575739,4989.75757526,2860.12121184,4196.93939352,3795.63636326,4424.63636319,8.2424242416,4216.51515109,0.0,4836.24242376,8.2424242416,4516.8484844,1483.63636349,42.0,42.0,?
2017-06-01 17:05:12.603704,4540.54545409,12.3636363624,4223.21212079,12.3636363624,3935.24242385,65.9393939328,3916.18181779,16.4848484832,4294.81818139,4108.84848444,4472.03030258,2579.87878762,4240.21212079,2645.81818155,4340.15151472,1821.57575739,4998.51515102,2860.12121184,4212.39393897,3795.63636326,4426.18181774,8.2424242416,4210.84848443,0.0,4838.30302982,8.2424242416,4518.39393894,1483.63636349,42.0,42.0,?
2017-06-01 17:05:12.610065,4536.42424197,12.3636363624,4223.7272723,12.3636363624,3947.0909087,65.9393939328,3919.7878784,16.4848484832,4296.87878745,4108.84848444,4480.78787834,2579.87878762,4244.84848442,2645.81818155,4343.75757532,1821.57575739,5011.39393889,2860.12121184,4227.33333291,3795.63636326,4424.12121168,8.2424242416,4213.93939352,0.0,4838.30302982,8.2424242416,4521.48484803,1483.63636349,42.0,42.0,?
2017-06-01 17:05:12.620196,4535.39393894,12.3636363624,4223.21212079,12.3636363624,3949.15151476,65.9393939328,3919.27272688,16.4848484832,4293.27272684,4108.84848444,4483.36363592,2579.87878762,4237.63636321,2645.81818155,4338.60606017,1821.57575739,5012.42424192,2860.12121184,4230.424242,3795.63636326,4424.63636319,8.2424242416,4220.63636321,0.0,4838.30302982,8.2424242416,4523.03030258,1483.63636349,42.0,42.0,?
2017-06-01 17:05:12.626060,4540.03030258,12.3636363624,4221.66666624,12.3636363624,3952.75757536,65.9393939328,3928.03030264,16.4848484832,4306.15151472,4108.84848444,4489.03030258,2579.87878762,4230.93939352,2645.81818155,4340.15151472,1821.57575739,5015.51515101,2860.12121184,4235.57575715,3795.63636326,4428.75757531,8.2424242416,4222.18181776,0.0,4839.33333285,8.2424242416,4526.12121167,1483.63636349,42.0,42.0,?
2017-06-01 17:05:12.634635,4539.51515106,12.3636363624,4220.1212117,12.3636363624,3960.48484809,65.9393939328,3931.63636324,16.4848484832,4312.84848442,4108.84848444,4489.5454541,2579.87878762,4227.84848443,2645.81818155,4340.15151472,1821.57575739,5021.18181768,2860.12121184,4239.18181776,3795.63636326,4425.66666622,8.2424242416,4218.06060564,0.0,4837.7878783,8.2424242416,4525.60606015,1483.63636349,42.0,42.0,?
2017-06-01 17:05:12.641722,4542.60606015,12.3636363624,4222.69696927,12.3636363624,3946.57575718,65.9393939328,3917.21212082,16.4848484832,4291.7272723,4108.84848444,4475.63636319,2579.87878762,4213.424242,2645.81818155,4326.24242381,1821.57575739,5009.84848435,2860.12121184,4230.424242,3795.63636326,4426.18181774,8.2424242416,4214.45454503,0.0,4839.84848436,8.2424242416,4523.54545409,1483.63636349,42.0,42.0,?
2017-06-01 17:05:12.649075,4542.60606015,12.3636363624,4223.21212079,12.3636363624,3932.15151476,65.9393939328,3911.54545415,16.4848484832,4286.06060563,4108.84848444,4470.48484804,2579.87878762,4213.93939352,2645.81818155,4327.78787836,1821.57575739,5004.18181768,2860.12121184,4225.78787837,3795.63636326,4429.27272683,8.2424242416,4214.45454503,0.0,4838.30302982,8.2424242416,4523.03030258,1483.63636349,42.0,42.0,?
2017-06-01 17:05:12.658057,4541.06060561,12.3636363624,4222.18181776,12.3636363624,3941.42424203,65.9393939328,3919.27272688,16.4848484832,4297.39393896,4108.84848444,4477.18181773,2579.87878762,4237.63636321,2645.81818155,4347.36363593,1821.57575739,5017.06060556,2860.12121184,4228.87878746,3795.63636326,4429.78787834,8.2424242416,4219.09090867,0.0,4838.30302982,8.2424242416,4528.18181773,1483.63636349,42.0,42.0,?
2017-06-01 17:05:12.664547,4543.63636318,12.3636363624,4223.21212079,12.3636363624,3943.99999961,65.9393939328,3910.51515112,16.4848484832,4283.48484806,4108.84848444,4468.42424198,2579.87878762,4248.45454503,2645.81818155,4349.9393935,1821.57575739,5017.57575707,2860.12121184,4231.45454503,3795.63636326,4428.2424238,8.2424242416,4222.18181776,0.0,4840.87878739,8.2424242416,4529.21212076,1483.63636349,42.0,42.0,?
2017-06-01 17:05:12.672162,4543.63636318,12.3636363624,4224.24242382,12.3636363624,3930.0909087,65.9393939328,3901.24242385,16.4848484832,4271.63636321,4108.84848444,4464.30302986,2579.87878762,4249.48484806,2645.81818155,4346.84848441,1821.57575739,5012.93939344,2860.12121184,4233.51515109,3795.63636326,4426.18181774,8.2424242416,4215.48484806,0.0,4838.81818133,8.2424242416,4522.51515106,1483.63636349,42.0,42.0,?
2017-06-01 17:05:12.681173,4547.24242379,12.3636363624,4224.75757534,12.3636363624,3937.81818142,65.9393939328,3915.66666628,16.4848484832,4292.24242381,4108.84848444,4484.90909046,2579.87878762,4262.87878745,2645.81818155,4358.69696926,1821.57575739,5022.72727222,2860.12121184,4239.18181776,3795.63636326,4428.2424238,8.2424242416,4213.424242,0.0,4837.7878783,8.2424242416,4525.60606015,1483.63636349,42.0,42.0,?
2017-06-01 17:05:12.688137,4543.63636318,12.3636363624,4224.24242382,12.3636363624,3959.96969657,65.9393939328,3929.06060567,16.4848484832,4306.15151472,4108.84848444,4497.78787834,2579.87878762,4273.18181775,2645.81818155,4362.30302987,1821.57575739,5028.39393889,2860.12121184,4240.21212079,3795.63636326,4429.78787834,8.2424242416,4218.57575715,0.0,4837.7878783,8.2424242416,4527.66666621,1483.63636349,42.0,42.0,?
2017-06-01 17:05:12.696900,4537.454545,12.3636363624,4225.78787837,12.3636363624,3962.03030263,65.9393939328,3925.45454506,16.4848484832,4294.30302987,4108.84848444,4489.03030258,2579.87878762,4258.24242382,2645.81818155,4347.36363593,1821.57575739,5017.06060556,2860.12121184,4228.87878746,3795.63636326,4427.72727228,8.2424242416,4215.48484806,0.0,4838.81818133,8.2424242416,4524.06060561,1483.63636349,42.0,42.0,?
2017-06-01 17:05:12.704502,4542.60606015,12.3636363624,4226.30302988,12.3636363624,3957.90909051,65.9393939328,3926.48484809,16.4848484832,4296.87878745,4108.84848444,4486.45454501,2579.87878762,4238.15151473,2645.81818155,4340.66666623,1821.57575739,5010.36363586,2860.12121184,4224.24242382,3795.63636326,4427.21212077,8.2424242416,4211.87878746,0.0,4843.45454497,8.2424242416,4526.63636318,1483.63636349,42.0,42.0,?
2017-06-01 17:05:12.714676,4542.09090864,12.3636363624,4221.66666624,12.3636363624,3963.06060566,65.9393939328,3932.66666627,16.4848484832,4313.36363593,4108.84848444,4494.18181773,2579.87878762,4236.60606018,2645.81818155,4346.3333329,1821.57575739,5015.51515101,2860.12121184,4238.66666624,3795.63636326,4425.15151471,8.2424242416,4215.99999958,0.0,4841.39393891,8.2424242416,4526.12121167,1483.63636349,42.0,42.0,?
2017-06-01 17:05:12.719600,4541.06060561,12.3636363624,4221.15151473,12.3636363624,3952.75757536,65.9393939328,3925.45454506,16.4848484832,4304.60606018,4108.84848444,4486.96969652,2579.87878762,4232.48484806,2645.81818155,4340.15151472,1821.57575739,5009.33333283,2860.12121184,4239.18181776,3795.63636326,4426.69696925,8.2424242416,4218.06060564,0.0,4839.33333285,8.2424242416,4521.99999955,1483.63636349,42.0,42.0,?
2017-06-01 17:05:12.727092,4541.06060561,12.3636363624,4222.69696927,12.3636363624,3936.27272688,65.9393939328,3915.66666628,16.4848484832,4289.15151472,4108.84848444,4474.60606016,2579.87878762,4210.84848443,2645.81818155,4323.66666623,1821.57575739,4998.51515102,2860.12121184,4223.21212079,3795.63636326,4428.75757531,8.2424242416,4214.96969655,0.0,4841.39393891,8.2424242416,4521.48484803,1483.63636349,42.0,42.0,?
2017-06-01 17:05:12.737324,4540.03030258,12.3636363624,4221.66666624,12.3636363624,3937.81818142,65.9393939328,3914.12121173,16.4848484832,4288.63636321,4108.84848444,4468.42424198,2579.87878762,4200.03030261,2645.81818155,4323.66666623,1821.57575739,5004.6969692,2860.12121184,4226.8181814,3795.63636326,4425.66666622,8.2424242416,4217.54545412,0.0,4841.90909042,8.2424242416,4525.09090864,1483.63636349,42.0,42.0,?
2017-06-01 17:05:12.742137,4542.09090864,12.3636363624,4222.69696927,12.3636363624,3940.393939,65.9393939328,3913.60606021,16.4848484832,4285.54545412,4108.84848444,4463.27272683,2579.87878762,4219.09090867,2645.81818155,4339.12121169,1821.57575739,5016.03030253,2860.12121184,4237.1212117,3795.63636326,4425.66666622,8.2424242416,4222.69696927,0.0,4842.93939346,8.2424242416,4527.66666621,1483.63636349,42.0,42.0,?
2017-06-01 17:05:12.750150,4541.06060561,12.3636363624,4221.66666624,12.3636363624,3937.81818142,65.9393939328,3909.48484809,16.4848484832,4277.30302988,4108.84848444,4462.2424238,2579.87878762,4246.39393897,2645.81818155,4352.51515108,1821.57575739,5020.15151465,2860.12121184,4234.03030261,3795.63636326,4426.69696925,8.2424242416,4218.06060564,0.0,4839.33333285,8.2424242416,4521.99999955,1483.63636349,42.0,42.0,?
2017-06-01 17:05:12.758918,4540.54545409,12.3636363624,4222.18181776,12.3636363624,3935.24242385,65.9393939328,3902.27272688,16.4848484832,4274.21212078,4108.84848444,4461.21212077,2579.87878762,4255.15151473,2645.81818155,4355.60606017,1821.57575739,5020.15151465,2860.12121184,4225.78787837,3795.63636326,4428.2424238,8.2424242416,4212.90909049,0.0,4837.7878783,8.2424242416,4520.96969652,1483.63636349,42.0,42.0,?
2017-06-01 17:05:12.772076,4543.63636318,12.3636363624,4223.7272723,12.3636363624,3933.18181779,65.9393939328,3901.75757537,16.4848484832,4276.78787836,4108.84848444,4462.2424238,2579.87878762,4256.18181776,2645.81818155,4359.21212078,1821.57575739,5022.72727222,2860.12121184,4227.33333291,3795.63636326,4428.2424238,8.2424242416,4215.99999958,0.0,4839.84848436,8.2424242416,4523.03030258,1483.63636349,42.0,42.0,?
2017-06-01 17:05:12.776042,4544.66666621,12.3636363624,4222.18181776,12.3636363624,3936.27272688,65.9393939328,3911.03030264,16.4848484832,4284.51515109,4108.84848444,4469.45454501,2579.87878762,4262.87878745,2645.81818155,4366.42424199,1821.57575739,5027.36363586,2860.12121184,4234.54545412,3795.63636326,4425.66666622,8.2424242416,4218.57575715,0.0,4839.33333285,8.2424242416,4520.454545,1483.63636349,42.0,42.0,?
2017-06-01 17:05:12.785568,4543.63636318,12.3636363624,4222.18181776,12.3636363624,3931.12121173,65.9393939328,3909.99999961,16.4848484832,4281.93939351,4108.84848444,4469.96969652,2579.87878762,4255.66666624,2645.81818155,4360.24242381,1821.57575739,5021.18181768,2860.12121184,4235.57575715,3795.63636326,4426.69696925,8.2424242416,4214.96969655,0.0,4839.84848436,8.2424242416,4522.51515106,1483.63636349,42.0,42.0,?
2017-06-01 17:05:12.790559,4539.51515106,12.3636363624,4223.21212079,12.3636363624,3915.15151476,65.9393939328,3903.81818143,16.4848484832,4275.24242381,4108.84848444,4464.81818137,2579.87878762,4233.51515109,2645.81818155,4347.36363593,1821.57575739,5010.87878738,2860.12121184,4227.84848443,3795.63636326,4426.69696925,8.2424242416,4214.45454503,0.0,4839.84848436,8.2424242416,4520.96969652,1483.63636349,42.0,42.0,?
2017-06-01 17:05:12.797289,4542.60606015,12.3636363624,4223.21212079,12.3636363624,3913.0909087,65.9393939328,3911.03030264,16.4848484832,4282.45454503,4108.84848444,4470.99999955,2579.87878762,4223.7272723,2645.81818155,4341.69696926,1821.57575739,5005.72727223,2860.12121184,4212.39393897,3795.63636326,4426.18181774,8.2424242416,4220.63636321,0.0,4840.36363588,8.2424242416,4520.96969652,1483.63636349,42.0,42.0,?
2017-06-01 17:05:12.808445,4545.69696924,12.3636363624,4223.7272723,12.3636363624,3925.96969658,65.9393939328,3915.15151476,16.4848484832,4288.63636321,4108.84848444,4475.12121167,2579.87878762,4217.54545412,2645.81818155,4333.96969654,1821.57575739,5000.57575708,2860.12121184,4206.72727231,3795.63636326,4426.69696925,8.2424242416,4220.63636321,0.0,4839.33333285,8.2424242416,4525.60606015,1495.99999985,42.0,42.0,?
2017-06-01 17:05:12.815812,4537.454545,12.3636363624,4223.21212079,12.3636363624,3933.18181779,74.1818181744,3907.42424203,16.4848484832,4284.51515109,4108.84848444,4466.36363592,2579.87878762,4202.09090867,2645.81818155,4322.12121169,1821.57575739,4995.42424192,2860.12121184,4216.51515109,3795.63636326,4425.66666622,8.2424242416,4218.57575715,0.0,4838.81818133,8.2424242416,4523.54545409,1495.99999985,42.0,42.0,?
2017-06-01 17:05:12.821994,4538.48484803,12.3636363624,4223.7272723,12.3636363624,3929.06060567,74.1818181744,3907.42424203,20.606060604,4286.06060563,4108.84848444,4463.78787834,2579.87878762,4194.36363594,2645.81818155,4319.54545411,1821.57575739,4995.93939344,2860.12121184,4223.7272723,3795.63636326,4427.72727228,8.2424242416,4220.1212117,0.0,4842.42424194,8.2424242416,4523.54545409,1495.99999985,42.0,42.0,?
2017-06-01 17:05:12.830327,4542.09090864,12.3636363624,4223.7272723,12.3636363624,3924.42424203,74.1818181744,3917.72727234,20.606060604,4290.18181775,4104.72727232,4467.39393895,2579.87878762,4209.8181814,2645.81818155,4329.3333329,1821.57575739,5001.09090859,2860.12121184,4223.21212079,3795.63636326,4427.21212077,8.2424242416,4218.06060564,0.0,4840.36363588,8.2424242416,4525.60606015,1495.99999985,42.0,42.0,?
2017-06-01 17:05:12.836856,4540.03030258,12.3636363624,4222.69696927,12.3636363624,3920.81818143,74.1818181744,3916.69696931,20.606060604,4290.18181775,4104.72727232,4466.36363592,2579.87878762,4235.06060564,2645.81818155,4343.24242381,1821.57575739,5010.36363586,2860.12121184,4225.78787837,3795.63636326,4425.15151471,8.2424242416,4218.06060564,0.0,4837.7878783,8.2424242416,4526.12121167,1495.99999985,42.0,42.0,?
2017-06-01 17:05:12.845726,4538.99999955,12.3636363624,4224.24242382,12.3636363624,3917.72727234,74.1818181744,3906.393939,20.606060604,4289.15151472,4104.72727232,4461.21212077,2579.87878762,4247.424242,2637.57575731,4351.99999956,1821.57575739,5012.42424192,2860.12121184,4219.60606018,3795.63636326,4426.69696925,8.2424242416,4221.15151473,0.0,4839.33333285,8.2424242416,4522.51515106,1495.99999985,42.0,42.0,?
2017-06-01 17:05:12.853607,4537.96969652,12.3636363624,4225.27272685,12.3636363624,3921.84848446,74.1818181744,3903.81818143,20.606060604,4281.424242,4104.72727232,4452.96969652,2579.87878762,4246.90909048,2637.57575731,4351.48484805,1813.33333315,5004.18181768,2860.12121184,4208.27272685,3795.63636326,4425.15151471,8.2424242416,4217.54545412,0.0,4839.33333285,8.2424242416,4518.90909046,1495.99999985,42.0,42.0,?
2017-06-01 17:05:12.863723,4539.51515106,12.3636363624,4225.27272685,12.3636363624,3928.03030264,74.1818181744,3910.51515112,20.606060604,4274.7272723,4104.72727232,4457.60606016,2579.87878762,4249.99999958,2637.57575731,4350.96969653,1813.33333315,5004.6969692,2855.99999971,4216.51515109,3795.63636326,4425.66666622,8.2424242416,4212.39393897,0.0,4841.39393891,8.2424242416,4527.1515147,1495.99999985,42.0,42.0,?
2017-06-01 17:05:12.870317,4539.51515106,12.3636363624,4221.15151473,12.3636363624,3926.99999961,74.1818181744,3921.84848446,20.606060604,4282.96969654,4104.72727232,4476.66666622,2579.87878762,4256.69696927,2637.57575731,4357.15151472,1813.33333315,5014.9999995,2855.99999971,4228.87878746,3799.75757538,4426.18181774,8.2424242416,4216.51515109,0.0,4841.39393891,8.2424242416,4530.24242379,1495.99999985,42.0,42.0,?
2017-06-01 17:05:12.875730,4540.03030258,12.3636363624,4220.63636321,12.3636363624,3929.06060567,74.1818181744,3924.93939355,20.606060604,4296.36363593,4104.72727232,4485.93939349,2579.87878762,4253.09090867,2637.57575731,4361.78787835,1813.33333315,5018.09090859,2855.99999971,4227.84848443,3799.75757538,4426.69696925,0.0,4217.03030261,0.0,4840.87878739,8.2424242416,4526.12121167,1495.99999985,42.0,42.0,?
2017-06-01 17:05:12.883281,4543.63636318,12.3636363624,4224.75757534,12.3636363624,3943.48484809,74.1818181744,3923.393939,20.606060604,4298.93939351,4104.72727232,4482.8484844,2579.87878762,4241.24242382,2637.57575731,4357.15151472,1813.33333315,5017.57575707,2855.99999971,4231.45454503,3799.75757538,4428.75757531,0.0,4214.96969655,8.2424242416,4842.93939346,8.2424242416,4529.72727227,1495.99999985,42.0,42.0,?
2017-06-01 17:05:12.891890,4542.60606015,12.3636363624,4222.18181776,12.3636363624,3946.57575718,74.1818181744,3924.93939355,20.606060604,4295.84848442,4104.72727232,4482.8484844,2579.87878762,4228.36363594,2637.57575731,4345.81818138,1813.33333315,5019.63636313,2855.99999971,4237.1212117,3799.75757538,4426.69696925,0.0,4216.51515109,8.2424242416,4841.39393891,8.2424242416,4530.7575753,1495.99999985,42.0,42.0,?
2017-06-01 17:05:12.899786,4543.12121167,12.3636363624,4221.15151473,12.3636363624,3932.66666627,74.1818181744,3922.36363597,20.606060604,4298.42424199,4104.72727232,4481.81818137,2579.87878762,4213.93939352,2637.57575731,4332.42424199,1813.33333315,5009.33333283,2855.99999971,4223.7272723,3791.51515114,4426.18181774,0.0,4218.06060564,8.2424242416,4840.87878739,8.2424242416,4527.66666621,1495.99999985,42.0,42.0,?
2017-06-01 17:05:12.907222,4541.57575712,12.3636363624,4221.66666624,12.3636363624,3932.15151476,74.1818181744,3919.27272688,20.606060604,4301.51515109,4104.72727232,4479.75757531,2579.87878762,4203.63636322,2637.57575731,4324.69696926,1813.33333315,4997.48484799,2855.99999971,4218.57575715,3791.51515114,4427.21212077,0.0,4216.51515109,8.2424242416,4840.36363588,8.2424242416,4526.63636318,1495.99999985,42.0,42.0,?
2017-06-01 17:05:12.915865,4540.03030258,12.3636363624,4221.66666624,12.3636363624,3938.84848445,74.1818181744,3924.42424203,20.606060604,4304.09090866,4104.72727232,4484.39393895,2579.87878762,4210.33333291,2637.57575731,4332.42424199,1813.33333315,5007.27272677,2855.99999971,4238.66666624,3791.51515114,4427.21212077,0.0,4218.57575715,4.1212121208,4839.33333285,8.2424242416,4528.69696924,1495.99999985,42.0,42.0,?
2017-06-01 17:05:12.923580,4544.66666621,12.3636363624,4224.24242382,12.3636363624,3933.6969693,74.1818181744,3926.99999961,20.606060604,4300.99999957,4104.72727232,4481.30302985,2579.87878762,4225.78787837,2637.57575731,4343.24242381,1813.33333315,5020.15151465,2855.99999971,4242.78787836,3791.51515114,4426.69696925,0.0,4220.63636321,4.1212121208,4840.36363588,8.2424242416,4530.7575753,1495.99999985,42.0,42.0,?
2017-06-01 17:05:12.933515,4541.57575712,12.3636363624,4223.7272723,12.3636363624,3935.24242385,74.1818181744,3919.27272688,20.606060604,4287.09090866,4104.72727232,4465.8484844,2579.87878762,4234.03030261,2637.57575731,4342.21212078,1813.33333315,5014.9999995,2855.99999971,4219.60606018,3791.51515114,4425.66666622,0.0,4217.54545412,4.1212121208,4838.81818133,8.2424242416,4527.1515147,1495.99999985,42.0,42.0,?
2017-06-01 17:05:12.939061,4538.99999955,12.3636363624,4221.15151473,12.3636363624,3948.63636324,74.1818181744,3919.27272688,20.606060604,4277.30302988,4104.72727232,4461.21212077,2579.87878762,4241.75757533,2637.57575731,4344.78787835,1813.33333315,5008.81818132,2855.99999971,4213.93939352,3791.51515114,4427.21212077,0.0,4218.57575715,4.1212121208,4838.30302982,8.2424242416,4526.63636318,1495.99999985,42.0,42.0,?
2017-06-01 17:05:12.946823,4539.51515106,12.3636363624,4221.66666624,12.3636363624,3956.36363597,74.1818181744,3928.54545415,20.606060604,4288.63636321,4104.72727232,4469.45454501,2579.87878762,4259.27272685,2637.57575731,4361.78787835,1813.33333315,5026.33333283,2855.99999971,4239.69696927,3791.51515114,4427.72727228,0.0,4220.63636321,4.1212121208,4839.84848436,8.2424242416,4531.27272682,1495.99999985,42.0,42.0,?
2017-06-01 17:05:12.954927,4536.93939349,12.3636363624,4221.66666624,12.3636363624,3948.12121173,74.1818181744,3929.06060567,20.606060604,4297.39393896,4104.72727232,4474.60606016,2579.87878762,4269.57575715,2637.57575731,4373.6363632,1813.33333315,5035.09090859,2855.99999971,4248.96969654,3791.51515114,4427.21212077,0.0,4215.99999958,4.1212121208,4839.33333285,8.2424242416,4531.27272682,1495.99999985,42.0,42.0,?
2017-06-01 17:05:12.962069,4539.51515106,12.3636363624,4222.18181776,12.3636363624,3935.24242385,74.1818181744,3923.393939,20.606060604,4290.18181775,4104.72727232,4471.51515107,2579.87878762,4263.39393897,2637.57575731,4365.39393896,1813.33333315,5015.51515101,2855.99999971,4222.18181776,3791.51515114,4429.27272683,0.0,4212.90909049,4.1212121208,4841.90909042,8.2424242416,4528.69696924,1495.99999985,42.0,42.0,?
2017-06-01 17:05:12.969175,4538.99999955,12.3636363624,4222.18181776,12.3636363624,3934.21212082,74.1818181744,3923.393939,20.606060604,4287.09090866,4104.72727232,4470.48484804,2579.87878762,4250.51515109,2637.57575731,4356.12121169,1813.33333315,5008.81818132,2855.99999971,4211.87878746,3791.51515114,4426.18181774,0.0,4215.99999958,4.1212121208,4840.36363588,8.2424242416,4527.1515147,1495.99999985,42.0,42.0,?
2017-06-01 17:05:12.978768,4540.03030258,12.3636363624,4224.75757534,12.3636363624,3938.84848445,74.1818181744,3923.393939,20.606060604,4293.78787836,4104.72727232,4478.72727228,2579.87878762,4241.24242382,2637.57575731,4356.12121169,1813.33333315,5020.66666616,2855.99999971,4231.45454503,3791.51515114,4424.63636319,0.0,4217.54545412,4.1212121208,4836.24242376,8.2424242416,4531.27272682,1495.99999985,42.0,42.0,?
2017-06-01 17:05:12.986302,4541.57575712,12.3636363624,4223.7272723,12.3636363624,3938.84848445,74.1818181744,3921.33333294,20.606060604,4305.12121169,4104.72727232,4489.03030258,2579.87878762,4240.21212079,2637.57575731,4358.69696926,1813.33333315,5021.18181768,2855.99999971,4235.57575715,3791.51515114,4427.21212077,0.0,4217.54545412,4.1212121208,4838.30302982,8.2424242416,4533.33333288,1495.99999985,42.0,42.0,?
2017-06-01 17:05:12.993917,4536.42424197,12.3636363624,4218.06060564,12.3636363624,3941.42424203,74.1818181744,3926.99999961,20.606060604,4310.27272684,4104.72727232,4491.09090864,2579.87878762,4233.51515109,2637.57575731,4351.48484805,1813.33333315,5013.45454495,2855.99999971,4222.18181776,3791.51515114,4426.69696925,0.0,4215.48484806,4.1212121208,4841.90909042,8.2424242416,4528.18181773,1495.99999985,42.0,42.0,?
2017-06-01 17:05:13.001256,4535.90909046,12.3636363624,4221.15151473,12.3636363624,3942.96969658,74.1818181744,3925.96969658,20.606060604,4303.06060563,4104.72727232,4482.33333289,2579.87878762,4209.8181814,2637.57575731,4333.96969654,1813.33333315,5005.72727223,2855.99999971,4219.09090867,3791.51515114,4426.69696925,0.0,4214.45454503,4.1212121208,4840.87878739,8.2424242416,4530.24242379,1495.99999985,42.0,42.0,?
2017-06-01 17:05:13.008262,4536.42424197,12.3636363624,4223.7272723,12.3636363624,3947.60606021,74.1818181744,3925.45454506,20.606060604,4304.09090866,4104.72727232,4481.81818137,2579.87878762,4201.57575716,2637.57575731,4330.36363593,1813.33333315,5005.21212071,2855.99999971,4229.39393897,3791.51515114,4426.69696925,0.0,4215.99999958,4.1212121208,4835.72727224,8.2424242416,4532.81818136,1495.99999985,42.0,42.0,?
2017-06-01 17:05:13.018675,4538.48484803,12.3636363624,4222.69696927,12.3636363624,3952.24242385,74.1818181744,3936.78787839,20.606060604,4314.90909048,4104.72727232,4489.03030258,2579.87878762,4223.7272723,2637.57575731,4343.75757532,1813.33333315,5014.9999995,2855.99999971,4235.57575715,3791.51515114,4427.21212077,0.0,4215.48484806,4.1212121208,4838.30302982,8.2424242416,4532.30302985,1495.99999985,42.0,42.0,?
2017-06-01 17:05:13.024518,4541.06060561,12.3636363624,4223.21212079,12.3636363624,3945.54545415,74.1818181744,3937.30302991,20.606060604,4309.24242381,4104.72727232,4487.99999955,2579.87878762,4245.36363594,2637.57575731,4353.54545411,1813.33333315,5019.12121162,2855.99999971,4231.96969655,3791.51515114,4428.2424238,0.0,4215.99999958,4.1212121208,4843.45454497,8.2424242416,4533.8484844,1495.99999985,42.0,42.0,?
2017-06-01 17:05:13.032474,4537.96969652,12.3636363624,4223.21212079,12.3636363624,3938.33333294,74.1818181744,3925.96969658,20.606060604,4300.48484805,4104.72727232,4479.75757531,2579.87878762,4258.24242382,2637.57575731,4358.18181775,1813.33333315,5016.03030253,2855.99999971,4224.24242382,3791.51515114,4426.69696925,0.0,4216.51515109,4.1212121208,4840.36363588,8.2424242416,4531.27272682,1495.99999985,42.0,42.0,?
2017-06-01 17:05:13.041800,4537.96969652,12.3636363624,4223.7272723,12.3636363624,3945.54545415,74.1818181744,3926.48484809,20.606060604,4305.63636321,4104.72727232,4474.60606016,2579.87878762,4269.57575715,2637.57575731,4362.81818138,1813.33333315,5020.66666616,2855.99999971,4222.69696927,3791.51515114,4428.2424238,0.0,4216.51515109,4.1212121208,4839.84848436,8.2424242416,4532.81818136,1495.99999985,42.0,42.0,?
2017-06-01 17:05:13.049874,4540.03030258,12.3636363624,4221.66666624,12.3636363624,3957.90909051,74.1818181744,3937.81818142,20.606060604,4306.15151472,4104.72727232,4480.27272682,2579.87878762,4279.87878745,2637.57575731,4373.12121168,1813.33333315,5030.96969647,2855.99999971,4237.1212117,3791.51515114,4428.75757531,0.0,4216.51515109,4.1212121208,4841.39393891,8.2424242416,4532.81818136,1495.99999985,42.0,42.0,?
2017-06-01 17:05:13.055326,4540.54545409,12.3636363624,4219.09090867,12.3636363624,3957.90909051,74.1818181744,3936.27272688,20.606060604,4298.42424199,4104.72727232,4485.93939349,2579.87878762,4278.84848442,2637.57575731,4376.72727229,1813.33333315,5029.93939344,2855.99999971,4245.36363594,3791.51515114,4426.18181774,0.0,4215.99999958,4.1212121208,4840.36363588,8.2424242416,4530.24242379,1495.99999985,42.0,42.0,?
2017-06-01 17:05:13.063397,4540.03030258,12.3636363624,4222.18181776,12.3636363624,3947.60606021,74.1818181744,3924.42424203,20.606060604,4292.75757533,4104.72727232,4484.39393895,2579.87878762,4264.424242,2637.57575731,4363.3333329,1813.33333315,5020.66666616,2855.99999971,4235.06060564,3791.51515114,4427.21212077,0.0,4216.51515109,4.1212121208,4840.87878739,8.2424242416,4532.30302985,1495.99999985,42.0,42.0,?
2017-06-01 17:05:13.072487,4537.454545,12.3636363624,4224.24242382,12.3636363624,3943.99999961,74.1818181744,3925.96969658,20.606060604,4297.90909048,4104.72727232,4486.45454501,2579.87878762,4255.15151473,2637.57575731,4356.12121169,1813.33333315,5017.57575707,2855.99999971,4227.33333291,3791.51515114,4428.75757531,0.0,4217.54545412,4.1212121208,4840.87878739,8.2424242416,4531.78787833,1495.99999985,42.0,42.0,?
2017-06-01 17:05:13.083729,4541.57575712,12.3636363624,4222.18181776,12.3636363624,3949.15151476,74.1818181744,3932.15151476,20.606060604,4306.15151472,4104.72727232,4491.60606016,2579.87878762,4245.87878745,2637.57575731,4354.06060563,1813.33333315,5012.93939344,2855.99999971,4229.39393897,3791.51515114,4428.2424238,0.0,4215.99999958,4.1212121208,4840.87878739,8.2424242416,4531.27272682,1495.99999985,42.0,42.0,?
2017-06-01 17:05:13.093676,4541.57575712,12.3636363624,4221.66666624,12.3636363624,3950.18181779,74.1818181744,3929.06060567,20.606060604,4310.78787836,4104.72727232,4490.06060561,2579.87878762,4227.84848443,2637.57575731,4343.24242381,1813.33333315,5006.24242374,2855.99999971,4230.424242,3791.51515114,4426.18181774,0.0,4214.45454503,4.1212121208,4838.30302982,8.2424242416,4531.27272682,1495.99999985,42.0,42.0,?
2017-06-01 17:05:13.101194,4539.51515106,12.3636363624,4223.21212079,12.3636363624,3950.18181779,74.1818181744,3929.57575718,20.606060604,4311.30302987,4104.72727232,4486.96969652,2579.87878762,4221.15151473,2637.57575731,4341.69696926,1813.33333315,5010.36363586,2855.99999971,4236.60606018,3791.51515114,4425.15151471,0.0,4217.03030261,4.1212121208,4836.75757527,8.2424242416,4532.81818136,1495.99999985,42.0,42.0,?
2017-06-01 17:05:13.104808,4544.1515147,12.3636363624,4223.21212079,12.3636363624,3952.75757536,74.1818181744,3935.75757536,20.606060604,4311.30302987,4104.72727232,4485.93939349,2579.87878762,4230.93939352,2637.57575731,4355.09090866,1813.33333315,5022.72727222,2855.99999971,4250.51515109,3791.51515114,4426.18181774,0.0,4218.06060564,4.1212121208,4841.90909042,8.2424242416,4536.42424197,1495.99999985,42.0,42.0,?
2017-06-01 17:05:13.111120,4541.06060561,12.3636363624,4222.18181776,12.3636363624,3948.63636324,74.1818181744,3933.6969693,20.606060604,4310.78787836,4104.72727232,4478.72727228,2579.87878762,4237.1212117,2637.57575731,4358.69696926,1813.33333315,5025.81818132,2855.99999971,4249.48484806,3791.51515114,4424.12121168,0.0,4214.96969655,4.1212121208,4843.45454497,8.2424242416,4534.87878743,1495.99999985,42.0,42.0,?
2017-06-01 17:05:13.120165,4540.03030258,12.3636363624,4222.69696927,12.3636363624,3942.45454506,74.1818181744,3927.51515112,20.606060604,4305.63636321,4104.72727232,4473.06060561,2579.87878762,4242.27272685,2637.57575731,4355.09090866,1813.33333315,5021.18181768,2855.99999971,4235.57575715,3791.51515114,4426.69696925,0.0,4214.96969655,4.1212121208,4841.90909042,8.2424242416,4533.8484844,1495.99999985,42.0,42.0,?
2017-06-01 17:05:13.129047,4545.18181773,12.3636363624,4222.69696927,12.3636363624,3949.66666627,74.1818181744,3930.0909087,20.606060604,4301.51515109,4104.72727232,4476.66666622,2579.87878762,4254.63636321,2637.57575731,4360.75757532,1813.33333315,5024.78787829,2855.99999971,4238.66666624,3791.51515114,4429.27272683,0.0,4218.06060564,4.1212121208,4841.39393891,8.2424242416,4532.81818136,1495.99999985,42.0,42.0,?
2017-06-01 17:05:13.136880,4540.03030258,12.3636363624,4223.21212079,12.3636363624,3955.84848445,74.1818181744,3932.15151476,20.606060604,4299.45454502,4104.72727232,4478.21212076,2579.87878762,4265.96969654,2637.57575731,4370.54545411,1813.33333315,5033.54545404,2855.99999971,4249.48484806,3791.51515114,4427.72727228,0.0,4216.51515109,4.1212121208,4839.84848436,8.2424242416,4531.27272682,1495.99999985,42.0,42.0,?
2017-06-01 17:05:13.142806,4537.454545,12.3636363624,4225.27272685,12.3636363624,3948.12121173,74.1818181744,3928.54545415,20.606060604,4295.84848442,4104.72727232,4476.1515147,2579.87878762,4271.63636321,2637.57575731,4376.72727229,1813.33333315,5038.18181768,2855.99999971,4251.54545412,3791.51515114,4428.2424238,0.0,4214.96969655,4.1212121208,4842.93939346,8.2424242416,4534.36363591,1495.99999985,42.0,42.0,?
2017-06-01 17:05:13.151169,4542.09090864,12.3636363624,4221.66666624,12.3636363624,3937.81818142,74.1818181744,3923.90909052,20.606060604,4297.39393896,4104.72727232,4479.24242379,2579.87878762,4270.60606018,2637.57575731,4377.2424238,1813.33333315,5032.51515101,2855.99999971,4245.36363594,3791.51515114,4427.72727228,0.0,4214.96969655,4.1212121208,4843.96969649,8.2424242416,4530.24242379,1495.99999985,42.0,42.0,?
2017-06-01 17:05:13.157940,4543.63636318,12.3636363624,4221.66666624,12.3636363624,3937.81818142,74.1818181744,3921.33333294,20.606060604,4301.51515109,4104.72727232,4478.72727228,2579.87878762,4259.78787836,2637.57575731,4363.84848441,1813.33333315,5017.57575707,2855.99999971,4232.99999958,3791.51515114,4427.21212077,0.0,4214.96969655,4.1212121208,4840.87878739,8.2424242416,4526.12121167,1495.99999985,42.0,42.0,?
2017-06-01 17:05:13.167261,4541.57575712,12.3636363624,4224.75757534,12.3636363624,3949.15151476,74.1818181744,3925.96969658,20.606060604,4301.51515109,4104.72727232,4477.18181773,2579.87878762,4248.45454503,2637.57575731,4353.54545411,1813.33333315,5013.45454495,2855.99999971,4232.99999958,3791.51515114,4427.21212077,0.0,4215.99999958,4.1212121208,4836.75757527,8.2424242416,4529.72727227,1495.99999985,42.0,42.0,?
2017-06-01 17:05:13.173758,4540.03030258,12.3636363624,4223.21212079,12.3636363624,3953.27272688,74.1818181744,3928.03030264,20.606060604,4298.42424199,4104.72727232,4478.72727228,2579.87878762,4237.1212117,2637.57575731,4351.99999956,1813.33333315,5015.51515101,2855.99999971,4240.7272723,3791.51515114,4424.12121168,0.0,4213.93939352,4.1212121208,4837.27272679,8.2424242416,4528.69696924,1495.99999985,42.0,42.0,?
2017-06-01 17:05:13.182479,4545.69696924,12.3636363624,4224.24242382,12.3636363624,3944.51515112,74.1818181744,3926.48484809,20.606060604,4300.99999957,4104.72727232,4478.21212076,2579.87878762,4219.60606018,2637.57575731,4343.24242381,1813.33333315,5005.72727223,2855.99999971,4230.424242,3791.51515114,4425.15151471,0.0,4213.93939352,4.1212121208,4842.42424194,8.2424242416,4528.18181773,1495.99999985,42.0,42.0,?
2017-06-01 17:05:13.189323,4543.63636318,12.3636363624,4224.24242382,12.3636363624,3948.12121173,74.1818181744,3934.72727233,20.606060604,4307.69696927,4104.72727232,4478.21212076,2579.87878762,4213.424242,2637.57575731,4336.54545411,1813.33333315,5004.18181768,2855.99999971,4223.21212079,3791.51515114,4427.21212077,0.0,4214.96969655,4.1212121208,4840.87878739,8.2424242416,4529.21212076,1495.99999985,42.0,42.0,?
2017-06-01 17:05:13.198148,4538.48484803,12.3636363624,4222.69696927,12.3636363624,3956.87878748,74.1818181744,3937.81818142,20.606060604,4309.75757533,4104.72727232,4482.33333289,2579.87878762,4224.75757534,2637.57575731,4345.30302987,1813.33333315,5018.6060601,2855.99999971,4243.30302988,3791.51515114,4428.2424238,0.0,4215.99999958,4.1212121208,4837.7878783,8.2424242416,4528.18181773,1495.99999985,42.0,42.0,?
2017-06-01 17:05:13.205269,4538.48484803,12.3636363624,4224.75757534,12.3636363624,3949.15151476,74.1818181744,3933.18181779,20.606060604,4311.81818139,4104.72727232,4485.93939349,2579.87878762,4237.63636321,2637.57575731,4356.12121169,1813.33333315,5028.90909041,2855.99999971,4256.69696927,3791.51515114,4428.2424238,0.0,4217.03030261,4.1212121208,4840.36363588,8.2424242416,4528.18181773,1495.99999985,42.0,42.0,?
2017-06-01 17:05:13.212327,4536.93939349,12.3636363624,4224.24242382,12.3636363624,3938.33333294,74.1818181744,3935.75757536,20.606060604,4308.21212078,4104.72727232,4485.42424198,2579.87878762,4251.03030261,2637.57575731,4361.27272684,1813.33333315,5029.93939344,2855.99999971,4247.93939351,3791.51515114,4426.69696925,0.0,4217.54545412,4.1212121208,4838.81818133,8.2424242416,4526.63636318,1495.99999985,42.0,42.0,?
2017-06-01 17:05:13.220126,4543.12121167,12.3636363624,4223.7272723,12.3636363624,3941.42424203,74.1818181744,3935.75757536,20.606060604,4291.7272723,4104.72727232,4479.75757531,2579.87878762,4259.27272685,2637.57575731,4361.78787835,1813.33333315,5026.33333283,2855.99999971,4239.18181776,3791.51515114,4429.78787834,0.0,4214.96969655,4.1212121208,4838.81818133,8.2424242416,4529.21212076,1495.99999985,42.0,42.0,?
2017-06-01 17:05:13.227868,4543.63636318,12.3636363624,4224.24242382,12.3636363624,3947.0909087,74.1818181744,3932.15151476,20.606060604,4287.09090866,4104.72727232,4473.57575713,2579.87878762,4262.36363594,2637.57575731,4362.30302987,1813.33333315,5025.81818132,2855.99999971,4245.36363594,3791.51515114,4429.27272683,0.0,4214.96969655,4.1212121208,4840.36363588,8.2424242416,4529.21212076,1495.99999985,42.0,42.0,?
2017-06-01 17:05:13.236834,4540.03030258,12.3636363624,4223.21212079,12.3636363624,3942.96969658,74.1818181744,3933.18181779,20.606060604,4297.39393896,4104.72727232,4473.06060561,2579.87878762,4262.87878745,2637.57575731,4363.84848441,1813.33333315,5027.36363586,2855.99999971,4247.424242,3791.51515114,4425.66666622,0.0,4218.57575715,4.1212121208,4839.33333285,8.2424242416,4526.63636318,1495.99999985,42.0,42.0,?
2017-06-01 17:05:13.243388,4543.63636318,12.3636363624,4221.66666624,12.3636363624,3933.6969693,74.1818181744,3926.48484809,20.606060604,4290.18181775,4104.72727232,4468.93939349,2579.87878762,4254.63636321,2637.57575731,4355.60606017,1813.33333315,5015.51515101,2855.99999971,4229.90909049,3791.51515114,4427.21212077,0.0,4215.48484806,4.1212121208,4839.33333285,8.2424242416,4526.63636318,1495.99999985,42.0,42.0,?
2017-06-01 17:05:13.253818,4541.06060561,12.3636363624,4222.18181776,12.3636363624,3932.15151476,74.1818181744,3916.69696931,20.606060604,4273.69696927,4104.72727232,4462.2424238,2579.87878762,4239.69696927,2637.57575731,4342.72727229,1813.33333315,4999.54545405,2855.99999971,4216.51515109,3791.51515114,4427.21212077,0.0,4215.48484806,4.1212121208,4839.84848436,8.2424242416,4520.96969652,1495.99999985,42.0,42.0,?
2017-06-01 17:05:13.261550,4540.03030258,12.3636363624,4223.7272723,12.3636363624,3938.84848445,74.1818181744,3922.36363597,20.606060604,4281.424242,4104.72727232,4468.93939349,2579.87878762,4227.84848443,2637.57575731,4338.60606017,1813.33333315,4998.51515102,2855.99999971,4223.7272723,3791.51515114,4426.69696925,0.0,4221.66666624,4.1212121208,4841.90909042,8.2424242416,4522.51515106,1495.99999985,42.0,42.0,?
2017-06-01 17:05:13.266531,4541.06060561,12.3636363624,4222.18181776,12.3636363624,3940.90909052,74.1818181744,3930.60606021,20.606060604,4302.54545412,4104.72727232,4481.30302985,2579.87878762,4218.57575715,2637.57575731,4336.0303026,1813.33333315,5003.66666617,2855.99999971,4230.93939352,3791.51515114,4426.18181774,0.0,4221.15151473,4.1212121208,4840.36363588,8.2424242416,4525.60606015,1495.99999985,42.0,42.0,?
2017-06-01 17:05:13.276009,4540.54545409,12.3636363624,4222.69696927,12.3636363624,3936.27272688,74.1818181744,3933.6969693,20.606060604,4302.54545412,4104.72727232,4485.93939349,2579.87878762,4211.87878746,2637.57575731,4331.39393896,1813.33333315,5002.63636314,2855.99999971,4226.8181814,3791.51515114,4425.15151471,0.0,4215.48484806,4.1212121208,4839.84848436,8.2424242416,4523.54545409,1495.99999985,42.0,42.0,?
2017-06-01 17:05:13.282978,4541.57575712,12.3636363624,4226.8181814,12.3636363624,3933.18181779,74.1818181744,3930.0909087,20.606060604,4294.30302987,4104.72727232,4484.39393895,2579.87878762,4210.33333291,2637.57575731,4330.36363593,1813.33333315,4997.48484799,2855.99999971,4225.78787837,3791.51515114,4427.21212077,0.0,4214.45454503,4.1212121208,4842.42424194,8.2424242416,4526.63636318,1495.99999985,42.0,42.0,?
2017-06-01 17:05:13.297470,4538.99999955,12.3636363624,4222.69696927,12.3636363624,3934.72727233,74.1818181744,3922.87878749,20.606060604,4298.42424199,4104.72727232,4485.42424198,2579.87878762,4216.51515109,2637.57575731,4337.57575714,1813.33333315,4999.54545405,2855.99999971,4229.90909049,3791.51515114,4426.69696925,0.0,4216.51515109,4.1212121208,4838.81818133,8.2424242416,4527.1515147,1495.99999985,42.0,42.0,?
2017-06-01 17:05:13.300063,4541.57575712,4.1212121208,4220.1212117,12.3636363624,3940.393939,74.1818181744,3925.45454506,20.606060604,4308.21212078,4104.72727232,4488.51515107,2579.87878762,4230.424242,2637.57575731,4348.90909047,1813.33333315,5011.39393889,2855.99999971,4229.39393897,3791.51515114,4427.72727228,0.0,4217.03030261,4.1212121208,4838.81818133,8.2424242416,4527.66666621,1495.99999985,42.0,42.0,?
2017-06-01 17:05:13.305869,4542.60606015,4.1212121208,4223.21212079,12.3636363624,3945.54545415,74.1818181744,3935.24242385,20.606060604,4304.60606018,4104.72727232,4487.48484804,2579.87878762,4243.30302988,2637.57575731,4354.06060563,1813.33333315,5018.6060601,2855.99999971,4229.90909049,3791.51515114,4427.21212077,0.0,4216.51515109,4.1212121208,4841.90909042,8.2424242416,4528.18181773,1495.99999985,42.0,42.0,?
2017-06-01 17:05:13.315642,4538.48484803,4.1212121208,4224.75757534,12.3636363624,3946.06060567,74.1818181744,3936.27272688,20.606060604,4302.0303026,4104.72727232,4482.8484844,2579.87878762,4252.06060564,2637.57575731,4356.12121169,1813.33333315,5018.6060601,2855.99999971,4236.09090867,3791.51515114,4424.12121168,0.0,4215.99999958,4.1212121208,4840.87878739,8.2424242416,4525.60606015,1491.87878773,42.0,42.0,?
2017-06-01 17:05:13.322348,4542.09090864,4.1212121208,4226.8181814,12.3636363624,3942.96969658,74.1818181744,3933.6969693,20.606060604,4305.12121169,4104.72727232,4478.72727228,2579.87878762,4269.06060563,2637.57575731,4365.90909047,1813.33333315,5025.81818132,2855.99999971,4241.24242382,3791.51515114,4425.15151471,0.0,4217.03030261,4.1212121208,4841.90909042,8.2424242416,4527.66666621,1491.87878773,42.0,42.0,?
2017-06-01 17:05:13.329661,4545.18181773,4.1212121208,4225.78787837,12.3636363624,3945.54545415,74.1818181744,3940.393939,24.7272727248,4305.63636321,4104.72727232,4482.8484844,2579.87878762,4285.54545412,2637.57575731,4378.27272683,1813.33333315,5040.24242374,2855.99999971,4246.90909048,3791.51515114,4427.21212077,0.0,4218.06060564,4.1212121208,4842.42424194,8.2424242416,4530.24242379,1491.87878773,42.0,42.0,?
