Timestamp,F3 Value,F3 Quality,FC5 Value,FC5 Quality,F7 Value,F7 Quality,T7 Value,T7 Quality,P7 Value,P7 Quality,O1 Value,O1 Quality,O2 Value,O2 Quality,P8 Value,P8 Quality,T8 Value,T8 Quality,F8 Value,F8 Quality,AF4 Value,AF4 Quality,FC6 Value,FC6 Quality,F4 Value,F4 Quality,AF3 Value,AF3 Quality,X Value,Y Value,Z Value
2017-03-27 15:23:58.306000,737,0,-249,0,-554,0,-595,0,180,0,514,0,-9,0,228,0,1407,0,-9,0,557,0,-244,0,1285,0,545,0,2,-1,?
2017-03-27 15:23:58.311000,737,0,-246,0,-554,0,-591,0,180,0,517,0,0,0,226,0,1413,0,-19,0,560,0,-241,0,1280,0,545,0,2,-1,?
2017-03-27 15:23:58.314000,732,0,-265,0,-572,0,-594,0,172,0,515,0,3,0,224,0,1402,0,-33,0,549,0,-230,0,1267,0,534,0,2,-1,?
2017-03-27 15:23:58.319000,728,0,-265,0,-589,0,-598,0,166,0,515,0,-4,0,226,0,1385,0,-46,0,542,0,-220,0,1265,0,538,0,2,-1,?
2017-03-27 15:23:58.327000,734,0,-239,0,-582,0,-602,0,171,0,520,0,-3,0,227,0,1398,0,-43,0,540,0,-220,0,1275,0,546,0,2,-1,?
2017-03-27 15:23:58.335000,740,0,-235,0,-577,0,-593,0,182,0,525,0,13,0,224,0,1414,0,-38,0,547,0,-217,0,1276,0,541,0,2,-1,?
2017-03-27 15:23:58.343000,739,0,-251,0,-576,0,-589,0,186,0,540,0,22,0,220,0,1413,0,-50,0,552,0,-215,0,1267,0,534,0,2,-1,?
2017-03-27 15:23:58.351000,723,0,-257,0,-575,0,-594,0,180,0,538,0,11,0,223,0,1410,0,-69,0,534,0,-222,0,1262,0,516,0,2,-1,?
2017-03-27 15:23:58.361000,711,0,-256,0,-586,0,-599,0,166,0,525,0,4,0,227,0,1401,0,-81,0,525,0,-218,0,1258,0,487,0,2,-1,?
2017-03-27 15:23:58.368000,718,0,-258,0,-590,0,-602,0,161,0,536,0,14,0,223,0,1396,0,-84,0,535,0,-201,0,1263,0,478,0,2,-2,?
2017-03-27 15:23:58.374000,726,0,-252,0,-584,0,-607,0,166,0,544,0,21,0,216,0,1402,0,-76,0,540,0,-201,0,1271,0,493,0,2,-1,?
2017-03-27 15:23:58.382000,722,0,-242,0,-586,0,-611,0,160,0,527,0,0,0,214,0,1404,0,-79,0,537,0,-213,0,1271,0,500,0,2,-2,?
2017-03-27 15:23:58.390000,717,0,-241,0,-588,0,-609,0,150,0,512,0,-10,0,212,0,1406,0,-93,0,526,0,-217,0,1261,0,501,0,2,-2,?
2017-03-27 15:23:58.398000,715,0,-248,0,-583,0,-611,0,150,0,505,0,-9,0,210,0,1408,0,-97,0,530,0,-214,0,1259,0,507,0,2,-2,?
2017-03-27 15:23:58.406000,709,0,-249,0,-585,0,-612,0,147,0,488,0,-87,0,212,0,1390,0,-101,0,533,0,-213,0,1262,0,500,0,2,-2,?
2017-03-27 15:23:58.414000,707,0,-238,0,-583,0,-609,0,135,0,482,0,-196,0,211,0,1379,0,-101,0,532,0,-211,0,1267,0,497,0,2,-2,?
2017-03-27 15:23:58.421000,719,0,-228,0,-569,0,-605,0,137,0,496,0,-231,0,211,0,1389,0,-91,0,548,0,-202,0,1278,0,514,0,2,-2,?
2017-03-27 15:23:58.429000,726,0,-230,0,-562,0,-605,0,145,0,507,0,-221,0,214,0,1399,0,-84,0,554,0,-197,0,1279,0,530,0,2,-1,?
2017-03-27 15:23:58.437000,721,0,-228,0,-566,0,-602,0,138,0,501,0,-231,0,217,0,1407,0,-82,0,538,0,-197,0,1271,0,530,0,2,-1,?
2017-03-27 15:23:58.445000,714,0,-220,0,-571,0,-592,0,134,0,488,0,-234,0,222,0,1416,0,-72,0,548,0,-188,0,1277,0,523,0,2,-2,?
2017-03-27 15:23:58.453000,727,0,-217,0,-567,0,-595,0,134,0,487,0,-231,0,225,0,1426,0,-60,0,594,0,-177,0,1306,0,532,0,2,-1,?
2017-03-27 15:23:58.460000,727,0,-227,0,-570,0,-605,0,135,0,494,0,-251,0,207,0,1429,0,-65,0,499,0,-197,0,1226,0,517,0,2,-1,?
2017-03-27 15:23:58.469000,711,0,-235,0,-571,0,-598,0,144,0,495,0,-252,0,208,0,1421,0,-63,0,554,0,-165,0,1235,0,507,0,2,-2,?
2017-03-27 15:23:58.477000,750,0,-213,0,-570,0,-602,0,134,0,477,0,-245,0,244,0,1411,0,-55,0,791,0,-101,0,1477,0,568,0,2,-2,?
2017-03-27 15:23:58.485000,775,0,-197,0,-574,0,-615,0,119,0,481,0,-266,0,232,0,1421,0,-55,0,575,0,-158,0,1334,0,557,0,2,-2,?
2017-03-27 15:23:58.493000,737,0,-211,0,-568,0,-601,0,139,0,501,0,-274,0,209,0,1446,0,-44,0,432,0,-180,0,1227,0,515,0,2,-2,?
2017-03-27 15:23:58.500000,728,0,-219,0,-576,0,-599,0,149,0,493,0,-273,0,224,0,1436,0,-53,0,620,0,-125,0,1713,0,544,0,2,-1,?
2017-03-27 15:23:58.507000,731,0,-215,0,-578,0,-599,0,142,0,485,0,-275,0,223,0,1434,0,-57,0,568,0,-134,0,1944,0,529,0,2,-1,?
2017-03-27 15:23:58.515000,722,0,-211,0,-563,0,-576,0,146,0,490,0,-258,0,222,0,1456,0,-42,0,541,0,-141,0,1731,0,497,0,2,-1,?
2017-03-27 15:23:58.524000,728,6320,-209,0,-567,0,-585,0,145,0,490,0,-266,0,220,0,1448,0,-49,0,579,0,-138,0,1622,0,499,0,2,-1,?
2017-03-27 15:23:58.532000,730,6320,-206,5488,-568,0,-600,0,144,0,490,0,-289,0,214,0,1438,0,-56,0,554,0,-143,0,1687,0,498,0,2,-1,?
2017-03-27 15:23:58.540000,729,6320,-213,5488,-570,0,-599,0,141,0,493,0,-286,0,218,0,1439,0,-54,0,565,0,-142,0,1615,0,501,5896,2,-1,?
2017-03-27 15:23:58.546000,720,6320,-225,5488,-585,8152,-605,0,140,0,487,0,-273,0,219,0,1437,0,-62,0,552,0,-157,0,1332,0,499,5896,2,-1,?
2017-03-27 15:23:58.554000,712,6320,-221,5488,-597,8152,-605,7520,148,0,488,0,-269,0,219,0,1434,0,-65,0,550,0,-167,0,1135,0,505,5896,2,-1,?
2017-03-27 15:23:58.562000,715,6320,-216,5488,-590,8152,-597,7520,152,760,507,0,-263,0,218,0,1439,0,-62,0,551,0,-168,0,1136,0,513,5896,2,-1,?
2017-03-27 15:23:58.570000,714,6320,-222,5488,-582,8152,-602,7520,149,760,504,7776,-254,0,218,0,1444,0,-62,0,547,0,-164,0,1204,0,512,5896,2,-1,?
2017-03-27 15:23:58.578000,712,6320,-221,5488,-591,8152,-611,7520,139,760,496,7776,-265,6208,217,0,1429,0,-74,0,550,0,-164,0,1204,0,512,5896,2,-1,?
2017-03-27 15:23:58.586000,715,6320,-221,5488,-606,8152,-610,7520,139,760,505,7776,-282,6208,215,6120,1420,0,-84,0,543,0,-168,0,1199,0,503,5896,2,-1,?
2017-03-27 15:23:58.593000,713,6320,-222,5488,-606,8152,-612,7520,148,760,505,7776,-277,6208,214,6120,1424,6120,-73,0,545,0,-158,0,1234,0,493,5896,2,-1,?
2017-03-27 15:23:58.601000,713,6320,-217,5488,-593,8152,-606,7520,156,760,500,7776,-257,6208,218,6120,1428,6120,-62,640,563,0,-156,0,1249,0,497,5896,2,-1,?
2017-03-27 15:23:58.609000,722,6320,-216,5488,-589,8152,-586,7520,164,760,515,7776,-245,6208,221,6120,1435,6120,-61,640,568,3832,-160,0,1258,0,512,5896,2,-1,?
2017-03-27 15:23:58.617000,727,6320,-213,5488,-594,8152,-580,7520,166,760,524,7776,-235,6208,222,6120,1451,6120,-51,640,567,3832,-145,5184,1277,0,520,5896,2,-1,?
2017-03-27 15:23:58.625000,726,6320,-207,5488,-589,8152,-584,7520,158,760,511,7776,-226,6208,227,6120,1473,6120,-34,640,571,3832,-134,5184,1288,4696,522,5896,2,-1,?
2017-03-27 15:23:58.633000,725,6320,-214,5488,-578,8152,-585,7520,158,760,515,7776,-226,6208,224,6120,1477,6120,-28,664,575,3832,-135,5184,1292,4696,529,5896,2,-1,?
2017-03-27 15:23:58.640000,711,6320,-221,5488,-589,8152,-589,7520,169,760,529,7776,-230,6208,220,6120,1460,6120,-39,664,564,3816,-138,5184,1281,4696,525,5896,2,-1,?
2017-03-27 15:23:58.649000,694,6320,-218,5488,-609,8152,-589,7520,171,760,522,7776,-234,6208,220,6120,1457,6120,-49,664,546,3816,-146,5200,1264,4696,504,5896,2,-1,?
2017-03-27 15:23:58.656000,701,6320,-218,5488,-614,8152,-583,7520,162,760,517,7776,-239,6208,215,6120,1461,6120,-45,664,556,3816,-151,5200,1273,4696,503,5896,2,-1,?
2017-03-27 15:23:58.664000,711,6320,-221,5488,-610,8152,-589,7520,157,760,535,7776,-229,6208,213,6120,1438,6120,-59,664,558,3816,-144,5200,1281,4696,499,5896,2,-1,?
2017-03-27 15:23:58.672000,700,6320,-222,5488,-608,8152,-595,7520,160,760,530,7776,-207,6208,220,6120,1421,6120,-87,664,541,3816,-153,5200,1264,4696,464,5896,2,-1,?
2017-03-27 15:23:58.679000,707,6320,-220,5488,-605,8152,-595,7520,154,760,506,7776,-189,6208,223,6120,1439,6120,-72,664,548,3816,-159,5200,1261,4696,452,5896,2,-1,?
2017-03-27 15:23:58.687000,718,6320,-220,5488,-609,8152,-601,7520,144,760,499,7776,-175,6208,216,6120,1459,6120,-16,664,570,3816,-134,5200,1275,4696,472,5896,2,-1,?
2017-03-27 15:23:58.697000,699,6320,-231,5488,-636,8152,-613,7520,144,760,502,7776,-170,6208,211,6120,1457,6120,15,664,573,3816,-122,5200,1276,4696,477,5896,2,-1,?
2017-03-27 15:23:58.703000,684,6320,-241,5488,-656,8152,-616,7520,144,760,503,7776,-179,6208,211,6120,1438,6120,12,664,566,3816,-133,5200,1278,4696,463,5896,2,-1,?
2017-03-27 15:23:58.712000,693,6320,-232,5488,-650,8152,-608,7520,139,760,499,7776,-170,6208,220,6120,1428,6120,12,664,569,3816,-131,5200,1274,4696,461,5896,2,-1,?
2017-03-27 15:23:58.718000,703,6320,-223,5488,-637,8152,-597,7520,146,760,499,7776,-138,6208,225,6120,1450,6120,19,664,579,3816,-128,5200,1261,4696,470,5896,2,-1,?
2017-03-27 15:23:58.727000,707,6320,-220,5488,-634,8152,-589,7520,157,760,506,7776,-114,6208,220,6120,1471,6120,28,664,585,3816,-122,5200,1265,4696,472,5896,2,-1,?
2017-03-27 15:23:58.734000,710,6320,-219,5488,-636,8152,-586,7520,161,760,507,7776,-98,6208,218,6120,1459,6120,30,664,585,3816,-113,5200,1279,4696,472,5896,2,-1,?
2017-03-27 15:23:58.742000,708,6320,-227,5488,-644,8152,-594,7520,165,760,507,7776,-76,6208,221,6120,1446,6120,17,664,579,3816,-122,5200,1277,4696,468,5896,2,-1,?
2017-03-27 15:23:58.750000,704,6320,-230,5488,-650,8152,-604,7520,164,760,509,7776,-63,6208,224,6120,1465,6120,18,664,578,3816,-127,5200,1276,4696,466,5896,2,-1,?
2017-03-27 15:23:58.759000,719,6320,-218,5488,-653,8152,-605,7520,147,760,496,7776,-70,6208,223,6120,1483,6120,31,664,582,3816,-110,5200,1289,4696,470,5896,2,-1,?
2017-03-27 15:23:58.765000,742,6320,-215,5488,-648,8152,-598,7520,135,760,471,7776,-82,6208,220,6120,1473,6120,41,664,584,3816,-95,5200,1289,4696,472,5896,2,-1,?
2017-03-27 15:23:58.774000,732,6320,-216,5488,-636,8152,-595,7520,138,760,463,7776,-82,6208,221,6120,1468,6120,50,664,587,3816,-90,5200,1280,4696,472,5896,2,-1,?
2017-03-27 15:23:58.782000,705,6320,-209,5488,-632,8152,-602,7520,136,760,469,7776,-71,6208,219,6120,1472,6120,49,664,590,3816,-92,5200,1281,4696,472,5896,2,-1,?
2017-03-27 15:23:58.789000,693,6320,-212,5488,-643,8152,-606,7520,137,760,470,7776,-58,6208,220,6120,1464,6120,38,664,580,3816,-98,5200,1280,4696,462,5896,2,-2,?
2017-03-27 15:23:58.798000,696,6320,-223,5488,-647,8152,-595,7520,146,760,480,7776,-39,6208,225,6120,1469,6120,38,664,573,3816,-86,5200,1279,4696,451,5896,2,-1,?
2017-03-27 15:23:58.807000,697,6320,-213,5488,-639,8152,-590,7520,154,760,499,7776,-16,6208,229,6120,1480,6120,43,664,576,3816,-73,5200,1282,4696,457,5896,2,-2,?
2017-03-27 15:23:58.813000,695,6320,-202,5488,-640,8152,-602,7520,153,760,504,7776,-8,6208,222,6120,1467,6120,35,664,572,3816,-91,5200,1278,4696,460,5896,2,-2,?
2017-03-27 15:23:58.820000,690,6320,-203,5488,-647,8152,-604,7520,146,760,499,7776,-8,6208,220,6120,1459,6120,24,664,567,3816,-109,5200,1274,4696,442,5896,2,-2,?
2017-03-27 15:23:58.829000,688,6320,-206,5488,-643,8152,-588,7520,151,760,513,7776,11,6208,225,6120,1479,6120,29,664,575,3816,-98,5200,1281,4696,426,5896,2,-2,?
2017-03-27 15:23:58.836000,692,6320,-206,5488,-639,8152,-587,7520,161,760,530,7776,30,6208,225,6120,1483,6120,33,664,581,3816,-88,5200,1284,4696,432,5896,2,-2,?
2017-03-27 15:23:58.844000,686,6320,-205,5488,-643,8152,-592,7520,160,760,531,7776,24,6208,221,6120,1472,6120,25,664,571,3816,-98,5200,1276,4696,433,5896,2,-2,?
2017-03-27 15:23:58.851000,677,6320,-204,5488,-642,8152,-588,7520,161,760,531,7776,6,6208,219,6120,1472,6120,14,664,559,3816,-109,5200,1268,4696,426,5896,2,-2,?
2017-03-27 15:23:58.859000,676,6320,-206,5488,-639,8152,-584,7520,162,760,524,7776,-5,6208,220,6120,1464,6120,8,664,560,3816,-121,5200,1261,4696,432,5896,2,-1,?
2017-03-27 15:23:58.868000,677,6320,-200,5488,-631,8152,-585,7520,150,760,507,7776,0,6208,222,6120,1455,6120,13,664,562,3816,-128,5200,1260,4696,445,5896,2,-1,?
2017-03-27 15:23:58.875000,682,6320,-195,5488,-617,8152,-587,7520,141,760,503,7776,7,6208,221,6120,1466,6120,24,664,570,3816,-111,5200,1267,4696,452,5896,2,-1,?
2017-03-27 15:23:58.883000,695,6320,-195,5488,-609,8152,-585,7520,145,760,510,7776,-1,6208,220,6120,1476,6120,41,664,580,3816,-96,5200,1275,4696,461,5896,2,-1,?
2017-03-27 15:23:58.892000,701,6320,-203,5488,-629,8152,-588,7520,145,760,507,7776,-10,6208,218,6120,1473,6120,30,664,575,3816,-111,5200,1278,4696,461,5896,2,-1,?
2017-03-27 15:23:58.900000,701,6320,-204,5488,-639,8152,-595,7520,141,760,503,7776,-10,6208,215,6120,1465,6120,1,664,573,3816,-117,5200,1280,4696,455,5896,2,-1,?
2017-03-27 15:23:58.907000,706,6320,-191,5488,-596,8152,-586,7520,144,760,505,7776,-10,6208,213,6120,1462,6120,15,664,580,3816,-107,5200,1274,4696,462,5896,2,-1,?
2017-03-27 15:23:58.915000,702,6320,-187,5488,-560,8152,-575,7520,143,760,495,7776,-9,6208,216,6120,1460,6120,23,664,577,3816,-106,5200,1264,4696,472,5896,2,-1,?
2017-03-27 15:23:58.922000,697,6320,-200,5488,-572,8152,-584,7520,138,760,487,7776,-4,6208,221,6120,1459,6120,-17,664,570,3816,-108,5200,1274,4696,473,5896,2,-1,?
2017-03-27 15:23:58.930000,705,6320,-198,5488,-576,8152,-591,7520,143,760,498,7776,4,6208,219,6120,1471,6120,-37,664,575,3816,-102,5200,1287,4696,481,5896,2,-1,?
2017-03-27 15:23:58.937000,711,6320,-183,5488,-552,8152,-583,7520,150,760,500,7776,12,6208,217,6120,1483,6120,-14,664,584,3816,-102,5200,1278,4696,496,5896,2,-1,?
2017-03-27 15:23:58.946000,702,6320,-183,5488,-550,8152,-580,7520,151,760,488,7776,10,6208,222,6120,1486,6120,-19,664,578,3816,-112,5200,1261,4696,495,5896,2,-1,?
2017-03-27 15:23:58.954000,692,6320,-195,5488,-560,8152,-582,7520,155,760,484,7776,8,6208,222,6120,1486,6120,-39,664,570,3816,-117,5200,1268,4696,490,5896,2,-1,?
2017-03-27 15:23:58.961000,697,6320,-202,5488,-562,8152,-584,7520,157,760,481,7776,12,6208,216,6120,1476,6120,-39,664,572,3816,-123,5200,1277,4696,498,5896,2,-1,?
2017-03-27 15:23:58.970000,698,6320,-199,5488,-559,8152,-587,7520,152,760,478,7776,10,6208,221,6120,1468,6120,-40,664,572,3816,-133,5200,1271,4696,493,5896,2,-1,?
2017-03-27 15:23:58.977000,698,6320,-192,5488,-555,8152,-588,7520,147,760,475,7776,5,6208,225,6120,1477,6120,-38,664,574,3816,-138,5200,1274,4696,474,5896,2,-2,?
2017-03-27 15:23:58.984000,709,6320,-187,5488,-554,8152,-590,7520,147,760,477,7776,11,6208,219,6120,1492,6120,-29,664,581,3816,-128,5200,1286,4696,475,5896,2,-1,?
2017-03-27 15:23:58.992000,714,6320,-191,5488,-551,8152,-587,7520,158,760,489,7776,23,6208,223,6120,1500,6120,-26,664,590,3816,-118,5200,1289,4696,497,5896,2,-2,?
2017-03-27 15:23:59,707,6320,-197,5488,-556,8152,-587,7520,164,760,492,7776,25,6208,223,6120,1495,6120,-26,664,589,3816,-117,5200,1286,4696,503,5896,2,-2,?
2017-03-27 15:23:59.008000,701,6320,-195,5488,-567,8152,-597,7520,155,760,482,7776,19,6208,211,6120,1481,6120,-28,664,587,3816,-122,5200,1284,4696,498,5896,2,-2,?
2017-03-27 15:23:59.018000,700,6320,-193,5488,-566,8152,-599,7520,147,760,491,7776,12,6208,214,6120,1473,6120,-34,664,592,3816,-132,5200,1282,4696,504,5896,2,-2,?
2017-03-27 15:23:59.025000,703,6320,-195,5488,-562,8152,-597,7520,151,760,507,7776,11,6208,222,6120,1476,6120,-44,664,583,3816,-138,5200,1276,4696,501,5896,2,-2,?
2017-03-27 15:23:59.033000,714,6320,-193,5488,-567,8152,-600,7520,154,760,502,7776,22,6208,215,6120,1471,6120,-46,664,567,3816,-136,5200,1274,4696,492,5896,2,-2,?
2017-03-27 15:23:59.040000,715,6320,-190,5496,-579,8152,-604,7520,146,760,499,7776,17,6208,207,6120,1455,6120,-56,664,568,3816,-144,5200,1272,4696,490,5896,2,-2,?
2017-03-27 15:23:59.049000,699,6320,-197,5496,-599,8152,-607,7520,137,760,504,7776,-4,6208,215,6120,1440,6120,-77,664,563,3816,-161,5200,1260,4696,482,5888,2,-2,?
2017-03-27 15:23:59.057000,693,6320,-203,5496,-605,8128,-615,7520,138,760,500,7776,-6,6208,225,6120,1442,6120,-80,664,552,3816,-164,5200,1256,4696,476,5888,2,-2,?
2017-03-27 15:23:59.064000,701,6320,-203,5496,-598,8128,-612,7536,143,760,494,7776,2,6208,222,6120,1456,6120,-73,664,551,3816,-155,5200,1269,4696,483,5888,2,-2,?
2017-03-27 15:23:59.071000,699,6320,-205,5496,-598,8128,-601,7536,138,736,496,7776,-3,6208,219,6120,1457,6120,-77,664,554,3816,-150,5200,1271,4696,482,5888,2,-2,?
2017-03-27 15:23:59.079000,695,6320,-201,5496,-597,8128,-604,7536,140,736,499,7800,-3,6208,222,6120,1451,6120,-74,664,558,3816,-143,5200,1270,4696,481,5888,2,-2,?
2017-03-27 15:23:59.086000,697,6320,-195,5496,-591,8128,-610,7536,149,736,500,7800,10,6208,221,6120,1460,6120,-61,664,560,3816,-130,5200,1279,4696,485,5888,2,-2,?
2017-03-27 15:23:59.095000,700,6320,-195,5496,-594,8128,-602,7536,146,736,501,7800,15,6208,215,6120,1462,6120,-59,664,568,3816,-123,5200,1284,4696,482,5888,2,-2,?
2017-03-27 15:23:59.104000,701,6320,-195,5496,-601,8128,-592,7536,138,736,493,7800,18,6208,220,6120,1450,6120,-66,664,574,3816,-124,5200,1279,4696,479,5888,2,-1,?
2017-03-27 15:23:59.111000,698,6320,-201,5496,-607,8128,-597,7536,135,736,484,7800,23,6208,226,6120,1454,6120,-72,640,565,3816,-123,5200,1272,4696,479,5888,2,-1,?
2017-03-27 15:23:59.118000,695,6320,-206,5496,-616,8128,-605,7536,139,736,489,7800,18,6208,219,6120,1463,6120,-77,640,555,3816,-127,5200,1272,4696,477,5888,2,-1,?
2017-03-27 15:23:59.128000,695,6320,-197,5496,-611,8128,-607,7536,144,736,503,7800,17,6208,221,6120,1458,6120,-68,640,560,3816,-129,5208,1280,4696,473,5888,2,-1,?
2017-03-27 15:23:59.134000,699,6320,-192,5496,-604,8128,-604,7536,143,736,505,7800,30,6208,227,6120,1460,6120,-53,640,575,3816,-117,5208,1285,4680,463,5888,2,-1,?
2017-03-27 15:23:59.141000,702,6320,-196,5496,-611,8128,-598,7536,143,736,507,7800,47,6208,221,6120,1470,6120,-51,664,582,3816,-111,5208,1288,4680,457,5888,2,-1,?
2017-03-27 15:23:59.150000,695,6320,-199,5496,-618,8128,-598,7536,150,736,512,7800,47,6208,217,6120,1470,6120,-56,664,573,3808,-115,5208,1286,4680,460,5888,2,-1,?
2017-03-27 15:23:59.157000,691,6320,-204,5496,-618,8128,-608,7536,151,736,513,7800,39,6208,219,6120,1462,6120,-64,664,568,3808,-120,5208,1279,4680,459,5888,2,-1,?
2017-03-27 15:23:59.166000,690,6320,-206,5496,-612,8128,-609,7536,146,736,509,7800,41,6208,218,6120,1461,6120,-68,664,569,3808,-128,5208,1278,4680,449,5888,2,-1,?
2017-03-27 15:23:59.173000,691,6320,-198,5496,-612,8128,-603,7536,144,736,504,7800,44,6208,218,6120,1468,6120,-66,664,559,3808,-126,5208,1284,4680,450,5888,2,-1,?
2017-03-27 15:23:59.181000,698,6320,-193,5496,-612,8128,-597,7536,141,736,505,7800,41,6208,224,6120,1479,6120,-58,664,558,3808,-108,5208,1288,4680,467,5888,2,-1,?
2017-03-27 15:23:59.191000,696,6320,-194,5496,-602,8128,-589,7536,146,736,510,7800,39,6208,225,6120,1490,6120,-50,664,570,3808,-108,5208,1292,4680,477,5888,2,-1,?
2017-03-27 15:23:59.196000,689,6320,-194,5496,-599,8128,-584,7536,153,736,512,7800,39,6208,222,6120,1486,6120,-51,664,576,3808,-113,5208,1301,4680,478,5888,2,-1,?
2017-03-27 15:23:59.204000,690,6320,-192,5496,-604,8128,-586,7536,154,736,511,7800,46,6208,226,6120,1482,6120,-42,664,577,3808,-98,5208,1307,4680,488,5888,2,-1,?
2017-03-27 15:23:59.211000,696,6320,-195,5496,-605,8128,-591,7536,152,736,507,7800,50,6208,227,6120,1495,6120,-35,664,575,3808,-89,5208,1302,4680,494,5888,2,-1,?
2017-03-27 15:23:59.219000,695,6320,-202,5496,-606,8128,-601,7536,145,736,503,7800,41,6208,217,6120,1494,6120,-51,664,573,3808,-98,5208,1298,4680,486,5888,2,-1,?
2017-03-27 15:23:59.227000,686,6320,-206,5496,-610,8128,-607,7536,142,736,503,7800,35,6208,213,6120,1478,6120,-64,664,569,3808,-101,5208,1294,4680,482,5888,2,-1,?
2017-03-27 15:23:59.235000,676,6320,-204,5496,-613,8128,-605,7536,148,736,502,7800,32,6208,218,6120,1476,6120,-61,664,569,3808,-108,5208,1289,4680,479,5888,2,-1,?
2017-03-27 15:23:59.243000,672,6320,-203,5496,-615,8128,-608,7536,151,736,501,7800,24,6208,220,6120,1483,6120,-73,664,566,3808,-126,5208,1281,4680,466,5888,2,-1,?
2017-03-27 15:23:59.250000,673,6320,-207,5496,-615,8128,-610,7536,146,736,500,7800,19,6208,221,6120,1471,6120,-91,664,563,3808,-127,5208,1273,4680,463,5888,2,-1,?
2017-03-27 15:23:59.260000,683,6320,-204,5496,-613,8128,-604,7536,139,736,499,7800,16,6208,224,6120,1459,6120,-88,664,569,3808,-120,5208,1277,4680,475,5888,2,-1,?
2017-03-27 15:23:59.266000,694,6320,-195,5496,-611,8128,-606,7536,141,736,501,7800,13,6208,220,6120,1460,6120,-82,664,571,3808,-129,5208,1278,4680,478,5888,2,-1,?
2017-03-27 15:23:59.275000,689,6320,-192,5496,-613,8128,-609,7536,139,736,495,7800,14,6208,217,6120,1461,6120,-87,664,570,3808,-139,5208,1270,4680,478,5888,2,-1,?
2017-03-27 15:23:59.284000,677,6320,-200,5496,-616,8128,-611,7536,130,736,482,7800,13,6208,219,6120,1454,6120,-89,664,570,3808,-132,5208,1262,4680,472,5888,2,-1,?
2017-03-27 15:23:59.291000,680,6320,-203,5496,-617,8128,-610,7536,129,736,475,7800,6,6208,218,6120,1446,6120,-84,664,568,3808,-120,5208,1264,4680,446,5888,2,-1,?
2017-03-27 15:23:59.300000,690,6320,-191,5496,-616,8128,-602,7536,135,736,477,7800,10,6208,218,6120,1444,6120,-82,664,562,3808,-121,5208,1270,4680,434,5888,2,-1,?
2017-03-27 15:23:59.309000,689,6320,-187,5496,-615,8128,-599,7536,139,736,477,7800,7,6208,220,6120,1449,6120,-83,664,546,3808,-126,5208,1269,4680,450,5888,2,-1,?
2017-03-27 15:23:59.315000,684,6320,-193,5496,-613,8128,-603,7536,140,736,475,7800,-13,6208,220,6120,1454,6120,-80,664,537,3808,-122,5208,1264,4680,460,5888,2,-1,?
2017-03-27 15:23:59.323000,687,6320,-192,5496,-611,8128,-598,7536,143,736,475,7800,-20,6208,222,6120,1455,6120,-67,664,542,3808,-108,5208,1263,4680,465,5888,2,-1,?
2017-03-27 15:23:59.329000,692,6320,-187,5496,-606,8128,-587,7536,148,736,475,7800,-3,6208,224,6120,1458,6120,-53,664,554,3808,-94,5208,1271,4680,479,5888,2,-1,?
2017-03-27 15:23:59.338000,696,6320,-181,5496,-599,8128,-583,7536,153,736,476,7800,1,6208,222,6120,1462,6120,-52,664,570,3808,-92,5208,1280,4680,493,5888,2,-1,?
2017-03-27 15:23:59.346000,697,6320,-175,5496,-599,8128,-583,7536,152,736,480,7800,-14,6208,219,6120,1459,6120,-48,664,578,3808,-96,5208,1291,4680,493,5888,2,-1,?
2017-03-27 15:23:59.354000,696,6320,-175,5496,-595,8128,-580,7536,145,736,478,7800,-23,6208,212,6120,1468,6120,-41,664,581,3808,-82,5208,1294,4680,490,5888,2,-1,?
2017-03-27 15:23:59.362000,696,6320,-171,5496,-591,8128,-577,7536,144,736,474,7800,-15,6208,214,6120,1483,6120,-48,664,589,3808,-64,5208,1292,4680,492,5888,2,-1,?
2017-03-27 15:23:59.373000,698,6320,-168,5496,-597,8128,-577,7536,152,736,484,7800,3,6208,225,6120,1482,6120,-55,664,590,3808,-72,5208,1290,4680,498,5888,2,-1,?
2017-03-27 15:23:59.379000,698,6320,-176,5496,-594,8128,-577,7536,164,736,501,7800,19,6208,229,6120,1474,6120,-52,664,584,3808,-78,5208,1289,4680,505,5888,2,-1,?
2017-03-27 15:23:59.383000,696,6320,-189,5496,-589,8128,-574,7536,158,736,504,7800,25,6208,223,6120,1475,6120,-57,664,583,3808,-72,5208,1288,4680,501,5888,2,-1,?
2017-03-27 15:23:59.392000,685,6320,-186,5496,-596,8128,-582,7536,144,736,500,7800,28,6208,217,6120,1472,6120,-61,664,580,3808,-79,5208,1284,4680,495,5888,2,-1,?
2017-03-27 15:23:59.400000,674,6320,-180,5496,-609,8128,-589,7536,146,736,502,7800,34,6208,217,6120,1473,6120,-60,664,573,3808,-88,5208,1285,4680,492,5888,2,-1,?
2017-03-27 15:23:59.408000,676,6320,-187,5496,-610,8128,-585,7536,154,736,508,7800,47,6208,226,6120,1490,6120,-57,664,574,3808,-86,5208,1287,4680,483,5888,2,-1,?
2017-03-27 15:23:59.417000,682,6320,-187,5496,-599,8128,-583,7536,154,736,507,7800,54,6208,230,6120,1497,6120,-54,664,584,3808,-80,5208,1289,4680,479,5888,2,-1,?
2017-03-27 15:23:59.424000,685,6320,-180,5496,-593,8128,-585,7536,146,736,503,7800,47,6208,223,6120,1482,6120,-50,664,590,3808,-76,5208,1297,4680,492,5888,2,-1,?
2017-03-27 15:23:59.431000,676,6320,-183,5496,-599,8128,-587,7536,145,736,499,7800,34,6208,218,6120,1470,6120,-58,664,581,3808,-81,5208,1293,4680,490,5888,2,-1,?
2017-03-27 15:23:59.440000,667,6320,-191,5496,-612,8128,-591,7536,155,736,504,7800,31,6208,221,6120,1464,6120,-77,664,576,3808,-96,5208,1277,4680,454,5888,2,-1,?
2017-03-27 15:23:59.448000,676,6320,-193,5496,-614,8128,-595,7536,162,736,522,7800,39,6208,224,6120,1465,6120,-82,664,584,3808,-100,5208,1272,4680,437,5888,2,-1,?
2017-03-27 15:23:59.456000,691,6320,-187,5496,-598,8128,-594,7536,158,736,523,7800,41,6208,225,6120,1473,6120,-70,664,585,3808,-82,5208,1278,4680,461,5888,2,-1,?
2017-03-27 15:23:59.462000,697,6320,-179,5496,-585,8128,-595,7536,148,736,504,7800,47,6208,224,6120,1484,6120,-56,664,587,3808,-66,5208,1282,4680,479,5888,2,-1,?
2017-03-27 15:23:59.471000,690,6320,-180,5496,-590,8128,-596,7536,144,736,496,7800,49,6208,220,6120,1489,6120,-59,664,588,3808,-73,5208,1279,4680,468,5888,2,-1,?
2017-03-27 15:23:59.480000,685,6320,-190,5496,-599,8128,-603,7536,144,736,502,7800,28,6208,218,6120,1477,6120,-80,664,582,3808,-96,5208,1271,4680,458,5888,2,-1,?
2017-03-27 15:23:59.486000,682,6320,-189,5496,-598,8128,-605,7536,144,736,503,7800,19,6208,222,6120,1464,6120,-88,664,575,3808,-99,5208,1264,4680,458,5888,2,-1,?
2017-03-27 15:23:59.495000,679,6320,-183,5496,-603,8128,-595,7536,145,736,502,7800,36,6208,221,6120,1461,6120,-80,664,575,3808,-88,5208,1263,4680,461,5888,2,-1,?
2017-03-27 15:23:59.502000,673,6320,-191,5496,-614,8128,-591,7536,148,736,507,7800,44,6208,217,6120,1466,6120,-76,664,579,3808,-90,5208,1266,4680,459,5888,2,-1,?
2017-03-27 15:23:59.508000,672,6320,-199,5496,-614,8128,-592,7536,146,736,506,7800,36,6208,221,6120,1468,6120,-78,664,576,3808,-95,5208,1266,4680,450,5888,2,-1,?
2017-03-27 15:23:59.517000,680,6320,-191,5496,-610,8128,-590,7536,142,736,506,7800,30,6208,226,6120,1459,6120,-78,664,577,3808,-93,5208,1268,4680,450,5888,2,-1,?
2017-03-27 15:23:59.525000,683,6320,-183,5496,-608,8128,-586,7536,147,736,503,7800,30,6208,220,6120,1457,6120,-80,664,583,3808,-93,5208,1270,4680,457,5888,2,-1,?
2017-03-27 15:23:59.533000,673,6328,-189,5496,-604,8128,-584,7536,154,736,507,7800,39,6208,218,6120,1462,6120,-73,664,583,3808,-91,5208,1266,4680,451,5888,2,-1,?
2017-03-27 15:23:59.542000,668,6328,-195,5472,-602,8128,-585,7536,161,736,524,7800,47,6208,225,6120,1462,6120,-63,664,583,3808,-83,5208,1262,4680,443,5888,2,-1,?
2017-03-27 15:23:59.552000,679,6328,-194,5472,-605,8128,-584,7536,170,736,525,7800,46,6208,227,6120,1463,6120,-67,664,587,3808,-81,5208,1263,4680,446,5896,2,-1,?
2017-03-27 15:23:59.556000,685,6328,-191,5472,-604,8152,-581,7536,162,736,507,7800,43,6208,223,6120,1476,6120,-67,664,588,3808,-84,5208,1268,4680,453,5896,2,-1,?
2017-03-27 15:23:59.564000,680,6328,-192,5472,-598,8152,-583,7520,144,736,500,7800,34,6208,216,6120,1472,6120,-66,664,585,3808,-75,5208,1275,4680,452,5896,2,-1,?
2017-03-27 15:23:59.575000,677,6328,-189,5472,-596,8152,-587,7520,154,760,511,7800,33,6208,217,6120,1457,6120,-75,664,587,3808,-60,5208,1278,4680,453,5896,2,-1,?
2017-03-27 15:23:59.582000,678,6328,-184,5472,-600,8152,-587,7520,167,760,512,7776,45,6208,223,6120,1459,6120,-86,664,596,3808,-61,5208,1280,4680,458,5896,2,-1,?
2017-03-27 15:23:59.587000,676,6328,-190,5472,-605,8152,-591,7520,152,760,506,7776,48,6224,225,6120,1469,6120,-93,664,587,3808,-84,5208,1270,4680,438,5896,2,-1,?
2017-03-27 15:23:59.597000,677,6328,-196,5472,-603,8152,-594,7520,139,760,506,7776,42,6224,219,6128,1474,6120,-93,664,575,3808,-92,5208,1257,4680,409,5896,2,-1,?
2017-03-27 15:23:59.603000,680,6328,-191,5472,-590,8152,-589,7520,146,760,503,7776,40,6224,219,6128,1468,6136,-95,664,584,3808,-82,5208,1271,4680,414,5896,2,-1,?
2017-03-27 15:23:59.612000,680,6328,-189,5472,-580,8152,-586,7520,152,760,499,7776,44,6224,221,6128,1465,6136,-93,664,596,3808,-77,5208,1290,4680,441,5896,2,-1,?
2017-03-27 15:23:59.618000,689,6328,-187,5472,-572,8152,-585,7520,154,760,498,7776,47,6224,221,6128,1480,6136,-77,664,600,3824,-71,5208,1291,4680,456,5896,2,-1,?
2017-03-27 15:23:59.627000,698,6328,-169,5472,-557,8152,-582,7520,160,760,503,7776,48,6224,224,6128,1502,6136,-51,664,607,3824,-57,5208,1292,4680,465,5896,2,-1,?
2017-03-27 15:23:59.634000,699,6328,-163,5472,-544,8152,-581,7520,162,760,503,7776,46,6224,225,6128,1512,6136,-43,664,609,3824,-55,5208,1294,4696,486,5896,2,-1,?
2017-03-27 15:23:59.643000,698,6328,-182,5472,-546,8152,-590,7520,158,760,502,7776,41,6224,219,6128,1508,6136,-56,656,606,3824,-66,5208,1290,4696,502,5896,2,-1,?
2017-03-27 15:23:59.649000,694,6328,-193,5472,-555,8152,-599,7520,157,760,506,7776,38,6224,220,6128,1507,6136,-62,656,602,3824,-65,5208,1287,4696,498,5896,2,-1,?
2017-03-27 15:23:59.658000,687,6328,-188,5472,-559,8152,-600,7520,158,760,505,7776,34,6224,224,6128,1511,6136,-64,656,600,3824,-61,5192,1285,4696,477,5896,2,-1,?
2017-03-27 15:23:59.666000,691,6328,-187,5472,-554,8152,-603,7520,155,760,492,7776,35,6224,220,6128,1513,6136,-70,656,598,3824,-64,5192,1281,4696,461,5896,2,-1,?
2017-03-27 15:23:59.674000,695,6328,-190,5472,-544,8152,-612,7520,144,760,479,7776,43,6224,215,6128,1514,6136,-61,656,597,3824,-55,5192,1283,4696,459,5896,2,-1,?
2017-03-27 15:23:59.682000,686,6328,-189,5472,-552,8152,-611,7520,140,760,476,7776,46,6224,216,6128,1520,6136,-49,656,589,3824,-42,5192,1280,4696,460,5896,2,-1,?
2017-03-27 15:23:59.690000,674,6328,-190,5472,-573,8152,-605,7520,146,760,475,7776,42,6224,214,6128,1523,6136,-61,656,565,3824,-60,5192,1264,4696,448,5896,2,-1,?
2017-03-27 15:23:59.697000,672,6328,-198,5472,-575,8152,-610,7520,131,760,470,7776,25,6224,214,6128,1501,6136,-77,656,550,3824,-83,5192,1259,4696,441,5896,2,-1,?
2017-03-27 15:23:59.705000,676,6328,-200,5472,-565,8152,-619,7520,114,760,467,7776,4,6224,217,6128,1475,6136,-82,656,548,3824,-79,5192,1266,4696,447,5896,2,-1,?
2017-03-27 15:23:59.714000,676,6328,-192,5472,-567,8152,-616,7520,126,760,470,7776,4,6224,220,6128,1482,6136,-80,656,552,3824,-77,5192,1264,4696,446,5896,2,-1,?
2017-03-27 15:23:59.721000,674,6328,-188,5472,-569,8152,-610,7520,143,760,473,7776,19,6224,221,6128,1496,6136,-74,656,565,3824,-79,5192,1264,4696,440,5896,2,-1,?
2017-03-27 15:23:59.728000,677,6328,-189,5472,-555,8152,-610,7520,141,760,471,7776,18,6224,223,6128,1500,6136,-62,656,575,3824,-63,5192,1272,4696,438,5896,2,-2,?
2017-03-27 15:23:59.735000,688,6328,-188,5472,-548,8152,-614,7520,130,760,468,7776,10,6224,222,6128,1514,6136,-53,656,579,3824,-51,5192,1277,4696,427,5896,2,-1,?
2017-03-27 15:23:59.743000,692,6328,-189,5472,-568,8152,-618,7520,127,760,473,7776,12,6224,220,6128,1520,6136,-58,656,582,3824,-66,5192,1278,4696,408,5896,2,-2,?
2017-03-27 15:23:59.751000,681,6328,-193,5472,-580,8152,-619,7520,131,760,475,7776,14,6224,218,6128,1497,6136,-73,656,580,3824,-77,5192,1272,4696,400,5896,2,-2,?
2017-03-27 15:23:59.758000,671,6328,-185,5472,-565,8152,-617,7520,129,760,469,7776,9,6224,217,6128,1488,6136,-77,656,581,3824,-69,5192,1272,4696,415,5896,2,-2,?
2017-03-27 15:23:59.768000,674,6328,-183,5472,-558,8152,-614,7520,127,760,469,7776,4,6224,220,6128,1501,6136,-74,656,581,3824,-60,5192,1272,4696,429,5896,2,-2,?
2017-03-27 15:23:59.775000,691,6328,-194,5472,-572,8152,-613,7520,131,760,472,7776,6,6224,222,6128,1494,6136,-73,656,580,3824,-61,5192,1270,4696,433,5896,2,-2,?
2017-03-27 15:23:59.782000,694,6328,-185,5472,-567,8152,-615,7520,134,760,471,7776,14,6224,224,6128,1485,6136,-68,656,592,3824,-64,5192,1274,4696,434,5896,2,-2,?
2017-03-27 15:23:59.791000,680,6328,-168,5472,-552,8152,-612,7520,139,760,488,7776,21,6224,225,6128,1494,6136,-61,656,602,3824,-60,5192,1280,4696,433,5896,2,-2,?
2017-03-27 15:23:59.799000,676,6328,-176,5472,-555,8152,-603,7520,146,760,504,7776,20,6224,222,6128,1499,6136,-62,656,596,3824,-60,5192,1276,4696,434,5896,2,-2,?
2017-03-27 15:23:59.805000,678,6328,-193,5472,-556,8152,-601,7520,153,760,504,7776,19,6224,217,6128,1495,6136,-62,656,588,3824,-64,5192,1264,4696,433,5896,2,-2,?
2017-03-27 15:23:59.813000,671,6328,-191,5472,-546,8152,-603,7520,162,760,506,7776,21,6224,216,6128,1492,6136,-62,656,593,3824,-71,5192,1266,4696,435,5896,2,-1,?
2017-03-27 15:23:59.822000,669,6328,-177,5472,-544,8152,-596,7520,165,760,500,7776,22,6224,222,6128,1498,6136,-56,656,597,3824,-72,5192,1277,4696,445,5896,2,-1,?
2017-03-27 15:23:59.831000,675,6328,-170,5472,-539,8152,-587,7520,157,760,486,7776,19,6224,223,6128,1504,6136,-48,656,595,3824,-58,5192,1277,4696,440,5896,2,-1,?
2017-03-27 15:23:59.838000,679,6328,-181,5472,-533,8152,-592,7520,147,760,477,7776,10,6224,221,6128,1491,6136,-51,656,597,3824,-51,5192,1274,4696,420,5896,2,-1,?
2017-03-27 15:23:59.847000,681,6328,-194,5472,-541,8152,-603,7520,144,760,474,7776,2,6224,222,6128,1482,6136,-56,656,596,3824,-59,5192,1277,4696,410,5896,2,-2,?
2017-03-27 15:23:59.853000,682,6328,-183,5472,-540,8152,-602,7520,150,760,481,7776,3,6224,222,6128,1504,6136,-51,656,600,3824,-63,5192,1282,4696,413,5896,2,-2,?
2017-03-27 15:23:59.861000,686,6328,-171,5472,-525,8152,-592,7520,159,760,500,7776,10,6224,220,6128,1512,6136,-51,656,609,3824,-62,5192,1287,4696,413,5896,2,-2,?
2017-03-27 15:23:59.869000,694,6328,-182,5472,-522,8152,-590,7520,164,760,507,7776,23,6224,222,6128,1498,6136,-51,656,606,3824,-61,5192,1292,4696,407,5896,2,-1,?
2017-03-27 15:23:59.877000,690,6328,-186,5472,-526,8152,-590,7520,170,760,499,7776,39,6224,225,6128,1506,6136,-43,656,606,3824,-59,5192,1293,4696,413,5896,2,-1,?
2017-03-27 15:23:59.885000,682,6328,-178,5472,-529,8152,-587,7520,175,760,501,7776,43,6224,221,6128,1517,6136,-43,656,612,3824,-61,5192,1288,4696,427,5896,2,-1,?
2017-03-27 15:23:59.892000,684,6328,-181,5472,-535,8152,-588,7520,171,760,506,7776,32,6224,215,6128,1502,6136,-53,656,605,3824,-64,5192,1278,4696,413,5896,2,-1,?
2017-03-27 15:23:59.901000,686,6328,-189,5472,-541,8152,-597,7520,164,760,498,7776,24,6224,220,6128,1491,6136,-61,656,598,3824,-62,5192,1283,4696,384,5896,2,-1,?
2017-03-27 15:23:59.908000,683,6328,-187,5472,-542,8152,-600,7520,159,760,490,7776,20,6224,225,6128,1503,6136,-59,656,601,3824,-64,5192,1290,4696,390,5896,2,-1,?
2017-03-27 15:23:59.917000,684,6328,-179,5472,-537,8152,-589,7520,158,760,496,7776,18,6224,223,6128,1512,6136,-55,656,606,3824,-62,5192,1283,4696,414,5896,2,-1,?
2017-03-27 15:23:59.925000,694,6328,-178,5472,-531,8152,-589,7520,161,760,505,7776,29,6224,228,6128,1505,6136,-54,656,605,3824,-50,5192,1283,4696,410,5896,2,-1,?
2017-03-27 15:23:59.931000,698,6328,-186,5472,-535,8152,-595,7520,167,760,503,7776,44,6224,228,6128,1500,6136,-56,656,599,3824,-51,5192,1303,4696,400,5896,2,-1,?
2017-03-27 15:23:59.939000,687,6328,-193,5472,-546,8152,-595,7520,170,760,503,7776,42,6224,222,6128,1505,6136,-55,656,603,3824,-57,5192,1315,4696,409,5896,2,-1,?
2017-03-27 15:23:59.949000,679,6328,-191,5472,-550,8152,-603,7520,170,760,507,7776,38,6224,223,6128,1508,6136,-43,656,607,3824,-59,5192,1308,4696,419,5896,2,-1,?
2017-03-27 15:23:59.955000,683,6328,-195,5472,-544,8152,-611,7520,163,760,506,7776,43,6224,225,6128,1501,6136,-37,656,614,3824,-55,5192,1311,4696,425,5896,2,-1,?
2017-03-27 15:23:59.965000,704,6328,-198,5472,-543,8152,-604,7520,161,760,502,7776,39,6224,223,6128,1494,6136,-42,656,618,3824,-50,5192,1319,4696,431,5896,2,-1,?
2017-03-27 15:23:59.971000,721,6328,-199,5472,-542,8152,-604,7520,171,760,506,7776,34,6224,223,6128,1504,6136,-38,656,616,3824,-57,5192,1312,4696,437,5896,2,-1,?
2017-03-27 15:23:59.978000,712,6328,-204,5472,-542,8152,-612,7520,178,760,520,7776,39,6224,224,6128,1506,6136,-37,656,614,3824,-69,5192,1306,4696,440,5896,2,-1,?
2017-03-27 15:23:59.987000,700,6328,-202,5472,-542,8152,-604,7520,176,760,528,7776,45,6224,223,6128,1503,6136,-43,656,619,3824,-70,5192,1315,4696,439,5896,2,-1,?
2017-03-27 15:23:59.994000,712,6328,-191,5472,-532,8152,-594,7520,179,760,530,7776,59,6224,227,6128,1517,6136,-33,656,627,3824,-50,5192,1326,4696,448,5896,2,-1,?
2017-03-27 15:24:00.003000,723,6328,-190,5472,-528,8152,-601,7520,188,760,529,7776,71,6224,228,6128,1528,6136,-22,656,632,3824,-38,5192,1329,4696,454,5896,2,-1,?
2017-03-27 15:24:00.010000,710,6328,-209,5472,-545,8152,-610,7520,179,760,521,7776,67,6224,224,6128,1517,6136,-35,656,618,3824,-48,5192,1318,4696,442,5896,2,-1,?
2017-03-27 15:24:00.019000,703,6328,-223,5472,-560,8152,-613,7520,157,760,503,7776,59,6224,222,6128,1516,6136,-51,656,606,3824,-64,5192,1306,4696,435,5896,2,-1,?
2017-03-27 15:24:00.026000,705,6328,-217,5472,-548,8152,-610,7520,152,760,498,7776,64,6224,220,6128,1529,6136,-46,656,609,3824,-74,5192,1306,4696,437,5896,2,-1,?
2017-03-27 15:24:00.035000,700,6328,-212,5472,-540,8152,-606,7520,166,760,519,7776,70,6224,221,6128,1521,6136,-40,656,608,3824,-77,5192,1312,4696,435,5896,2,-1,?
2017-03-27 15:24:00.043000,710,6304,-217,5472,-553,8152,-599,7520,174,760,524,7776,71,6224,226,6128,1513,6136,-48,656,607,3824,-73,5192,1322,4696,427,5896,2,-1,?
2017-03-27 15:24:00.052000,711,6304,-216,5496,-549,8152,-587,7520,175,760,515,7776,74,6224,223,6128,1525,6136,-52,656,613,3824,-76,5192,1322,4696,408,5896,2,-1,?
2017-03-27 15:24:00.059000,692,6304,-208,5496,-538,8152,-577,7520,185,760,520,7776,80,6224,221,6128,1528,6136,-41,656,615,3824,-78,5192,1314,4696,386,5888,2,-1,?
2017-03-27 15:24:00.065000,690,6304,-215,5496,-548,8144,-585,7520,186,760,522,7776,79,6224,228,6128,1512,6136,-40,656,613,3824,-69,5192,1311,4696,383,5888,2,-1,?
2017-03-27 15:24:00.073000,701,6304,-221,5496,-552,8144,-594,7536,173,760,506,7776,68,6224,227,6128,1505,6136,-43,656,617,3824,-66,5192,1319,4696,398,5888,2,-1,?
2017-03-27 15:24:00.082000,699,6304,-214,5496,-538,8144,-594,7536,162,736,500,7776,63,6224,219,6128,1516,6136,-30,656,625,3824,-69,5192,1319,4696,413,5888,2,-1,?
2017-03-27 15:24:00.088000,691,6304,-215,5496,-553,8144,-598,7536,154,736,504,7776,61,6224,222,6128,1519,6136,-40,656,615,3824,-74,5192,1290,4696,409,5888,2,-1,?
2017-03-27 15:24:00.095000,691,6304,-220,5496,-572,8144,-610,7536,147,736,497,7776,56,6216,229,6128,1513,6136,-67,656,602,3824,-82,5192,1268,4696,401,5888,2,-1,?
2017-03-27 15:24:00.104000,701,6304,-216,5496,-563,8144,-613,7536,146,736,495,7776,52,6216,225,6136,1511,6136,-51,656,608,3824,-81,5192,1276,4696,417,5888,2,-1,?
2017-03-27 15:24:00.111000,699,6304,-215,5496,-564,8144,-598,7536,153,736,499,7776,48,6216,221,6136,1520,6136,-13,656,612,3824,-68,5192,1283,4696,425,5888,2,-1,?
2017-03-27 15:24:00.119000,677,6304,-219,5496,-581,8144,-593,7536,159,736,501,7776,45,6216,231,6136,1525,6136,7,648,610,3824,-63,5192,1278,4696,414,5888,2,-1,?
2017-03-27 15:24:00.126000,678,6304,-219,5496,-587,8144,-601,7536,158,736,503,7776,47,6216,234,6136,1527,6136,37,648,619,3832,-61,5192,1285,4696,420,5888,2,-1,?
2017-03-27 15:24:00.135000,700,6304,-225,5496,-603,8144,-610,7536,153,736,502,7776,50,6216,224,6136,1535,6136,60,648,631,3832,-60,5200,1288,4696,431,5888,2,-1,?
2017-03-27 15:24:00.143000,701,6304,-234,5496,-618,8144,-603,7536,152,736,504,7776,49,6216,222,6136,1535,6136,56,648,633,3832,-55,5200,1286,4672,428,5888,2,-1,?
2017-03-27 15:24:00.150000,701,6304,-228,5496,-603,8144,-589,7536,160,736,515,7776,58,6216,226,6136,1535,6136,63,664,640,3832,-44,5200,1297,4672,430,5888,2,-1,?
2017-03-27 15:24:00.158000,706,6304,-214,5496,-596,8144,-588,7536,167,736,519,7776,62,6216,224,6136,1538,6136,71,664,645,3832,-48,5200,1303,4672,439,5888,2,-1,?
2017-03-27 15:24:00.167000,695,6304,-225,5496,-619,8144,-600,7536,171,736,517,7776,55,6216,223,6136,1531,6136,51,664,627,3832,-61,5200,1284,4672,425,5888,2,-1,?
2017-03-27 15:24:00.177000,688,6304,-248,5496,-635,8144,-602,7536,175,736,527,7776,64,6216,229,6136,1529,6136,38,664,610,3832,-65,5200,1256,4672,405,5888,2,-1,?
2017-03-27 15:24:00.183000,693,6304,-238,5496,-627,8144,-591,7536,179,736,530,7776,76,6216,226,6136,1548,6136,51,664,616,3832,-66,5200,1253,4672,406,5888,2,-1,?
2017-03-27 15:24:00.192000,692,6304,-223,5496,-622,8144,-588,7536,175,736,519,7776,61,6216,219,6136,1547,6136,57,664,621,3832,-66,5200,1298,4672,415,5888,2,-1,?
2017-03-27 15:24:00.199000,692,6304,-243,5496,-635,8144,-595,7536,162,736,520,7776,36,6216,218,6136,1518,6136,45,664,616,3832,-64,5200,1264,4672,410,5888,2,-1,?
2017-03-27 15:24:00.204000,689,6304,-253,5496,-643,8144,-600,7536,162,736,531,7776,38,6216,222,6136,1517,6136,42,664,610,3832,-65,5200,1230,4672,384,5888,2,-1,?
2017-03-27 15:24:00.212000,688,6304,-236,5496,-640,8144,-595,7536,177,736,532,7776,55,6216,224,6136,1539,6136,52,664,617,3832,-53,5200,1540,4672,368,5888,2,-1,?
2017-03-27 15:24:00.222000,699,6304,-229,5496,-640,8144,-583,7536,185,736,529,7776,63,6216,232,6136,1550,6136,55,664,635,3832,-30,5200,1905,4672,386,5888,2,-1,?
2017-03-27 15:24:00.229000,699,6304,-241,5496,-641,8144,-584,7536,178,736,535,7776,59,6216,230,6136,1551,6136,55,664,632,3832,-32,5200,1849,4672,402,5888,2,-1,?
2017-03-27 15:24:00.237000,691,6304,-249,5496,-644,8144,-600,7536,165,736,527,7776,50,6216,223,6136,1542,6136,58,664,622,3832,-45,5200,1666,4672,391,5888,2,-1,?
2017-03-27 15:24:00.243000,693,6304,-245,5496,-646,8144,-603,7536,161,736,512,7776,55,6216,228,6136,1539,6136,60,664,628,3832,-40,5200,1674,4672,384,5888,2,-1,?
2017-03-27 15:24:00.252000,692,6304,-241,5496,-642,8144,-592,7536,165,736,515,7776,77,6216,231,6136,1551,6136,57,664,627,3832,-40,5200,1592,4672,396,5888,2,-1,?
2017-03-27 15:24:00.260000,688,6304,-249,5496,-647,8144,-593,7536,170,736,533,7776,84,6216,224,6136,1553,6136,49,664,617,3832,-60,5200,1316,4672,404,5888,2,-1,?
2017-03-27 15:24:00.267000,689,6304,-258,5496,-663,8144,-601,7536,173,736,535,7776,76,6216,224,6136,1544,6136,35,664,609,3832,-86,5200,1130,4672,401,5888,2,-1,?
2017-03-27 15:24:00.276000,689,6304,-258,5496,-666,8144,-609,7536,170,736,524,7776,66,6216,227,6136,1536,6136,16,664,603,3832,-105,5200,1121,4672,399,5888,2,-1,?
2017-03-27 15:24:00.283000,689,6304,-254,5496,-662,8144,-611,7536,169,736,528,7776,58,6216,222,6136,1529,6136,6,664,598,3832,-110,5200,1190,4672,393,5888,2,-1,?
2017-03-27 15:24:00.291000,695,6304,-252,5496,-658,8144,-598,7536,175,736,538,7776,53,6216,221,6136,1528,6136,19,664,602,3832,-101,5200,1222,4672,395,5888,2,-1,?
2017-03-27 15:24:00.299000,700,6304,-255,5496,-658,8144,-594,7536,167,736,533,7776,51,6216,223,6136,1528,6136,29,664,607,3832,-89,5200,1232,4672,397,5888,2,-1,?
2017-03-27 15:24:00.309000,704,6304,-252,5496,-650,8144,-599,7536,159,736,527,7776,55,6216,224,6136,1540,6136,30,664,611,3832,-77,5200,1265,4672,396,5888,2,-1,?
2017-03-27 15:24:00.315000,710,6304,-229,5496,-613,8144,-574,7536,189,736,544,7776,80,6216,232,6136,1571,6136,55,664,630,3832,-53,5200,1286,4672,419,5888,2,-1,?
2017-03-27 15:24:00.321000,722,6304,-213,5496,-577,8144,-538,7536,226,736,565,7776,116,6216,238,6136,1598,6136,92,664,650,3832,-23,5200,1305,4672,455,5888,2,-1,?
2017-03-27 15:24:00.329000,729,6304,-219,5496,-571,8144,-536,7536,230,736,569,7776,129,6216,236,6136,1605,6136,94,664,645,3832,-12,5200,1310,4672,463,5888,2,-1,?
2017-03-27 15:24:00.337000,732,6304,-224,5496,-574,8144,-549,7536,226,736,565,7776,117,6216,234,6136,1602,6136,71,664,639,3832,-29,5200,1302,4672,454,5888,2,-1,?
2017-03-27 15:24:00.347000,729,6304,-219,5496,-563,8144,-543,7536,234,736,569,7776,107,6216,237,6136,1610,6136,76,664,642,3832,-38,5200,1305,4672,467,5888,2,-1,?
2017-03-27 15:24:00.353000,722,6304,-223,5496,-558,8144,-534,7536,240,736,579,7776,119,6216,238,6136,1619,6136,94,664,637,3832,-25,5200,1309,4672,467,5888,2,-1,?
2017-03-27 15:24:00.362000,726,6304,-232,5496,-559,8144,-539,7536,241,736,584,7776,128,6216,232,6136,1615,6136,81,664,631,3832,-30,5200,1307,4672,441,5888,2,-1,?
2017-03-27 15:24:00.368000,730,6304,-233,5496,-548,8144,-547,7536,241,736,578,7776,114,6216,223,6136,1612,6136,67,664,629,3832,-53,5200,1301,4672,435,5888,2,-1,?
2017-03-27 15:24:00.377000,728,6304,-223,5496,-542,8144,-552,7536,228,736,565,7776,103,6216,221,6136,1614,6136,76,664,623,3832,-46,5200,1298,4672,459,5888,2,-1,?
2017-03-27 15:24:00.387000,726,6304,-219,5496,-546,8144,-555,7536,216,736,559,7776,95,6216,223,6136,1597,6136,70,664,615,3832,-39,5200,1304,4672,479,5888,2,-1,?
2017-03-27 15:24:00.395000,741,6304,-224,5496,-533,8144,-552,7536,221,736,561,7776,86,6216,226,6136,1581,6136,59,664,617,3832,-52,5200,1312,4672,494,5888,2,-1,?
2017-03-27 15:24:00.401000,762,6304,-220,5496,-512,8144,-546,7536,223,736,564,7776,92,6216,225,6136,1600,6136,77,664,633,3832,-47,5200,1318,4672,514,5888,2,-1,?
2017-03-27 15:24:00.409000,759,6304,-212,5496,-520,8144,-550,7536,219,736,568,7776,111,6216,223,6136,1619,6136,94,664,640,3832,-24,5200,1324,4672,521,5888,2,-1,?
2017-03-27 15:24:00.415000,747,6304,-222,5496,-540,8144,-565,7536,222,736,570,7776,113,6216,227,6136,1611,6136,81,664,631,3832,-26,5200,1332,4672,515,5888,2,-1,?
2017-03-27 15:24:00.423000,754,6304,-237,5496,-541,8144,-571,7536,223,736,573,7776,105,6216,234,6136,1596,6136,69,664,629,3832,-42,5200,1330,4672,505,5888,2,-1,?
2017-03-27 15:24:00.431000,760,6304,-229,5496,-533,8144,-560,7536,224,736,574,7776,112,6216,234,6136,1598,6136,82,664,642,3832,-32,5200,1325,4672,504,5888,2,-1,?
2017-03-27 15:24:00.441000,757,6304,-212,5496,-533,8144,-556,7536,222,736,559,7776,110,6216,230,6136,1609,6136,102,664,649,3832,-11,5200,1339,4672,519,5888,2,-1,?
2017-03-27 15:24:00.448000,769,6304,-214,5496,-528,8144,-562,7536,207,736,528,7776,80,6216,227,6136,1604,6136,105,664,651,3832,-13,5200,1357,4672,537,5888,2,-1,?
2017-03-27 15:24:00.455000,795,6304,-218,5496,-515,8144,-561,7536,195,736,514,7776,60,6216,224,6136,1596,6136,98,664,664,3832,-15,5200,1362,4672,552,5888,2,-1,?
2017-03-27 15:24:00.463000,785,6304,-215,5496,-518,8144,-560,7536,206,736,539,7776,80,6216,226,6136,1602,6136,95,664,662,3832,-9,5200,1354,4672,547,5888,2,-2,?
2017-03-27 15:24:00.470000,747,6304,-228,5496,-543,8144,-572,7536,215,736,565,7776,110,6216,227,6136,1606,6136,88,664,639,3832,-23,5200,1327,4672,525,5888,2,-2,?
2017-03-27 15:24:00.478000,733,6304,-239,5496,-560,8144,-580,7536,207,736,566,7776,115,6216,226,6136,1594,6136,73,664,634,3832,-45,5200,1309,4672,518,5888,2,-1,?
2017-03-27 15:24:00.488000,748,6304,-226,5496,-551,8144,-572,7536,208,736,568,7776,113,6216,227,6136,1590,6136,71,664,647,3832,-42,5200,1326,4672,522,5888,2,-1,?
2017-03-27 15:24:00.494000,765,6304,-221,5496,-534,8144,-569,7536,216,736,562,7776,115,6216,228,6136,1606,6136,87,664,654,3832,-26,5200,1343,4672,533,5888,2,-2,?
2017-03-27 15:24:00.501000,778,6304,-227,5496,-522,8144,-570,7536,216,736,540,7776,112,6216,230,6136,1615,6136,92,664,653,3832,-9,5200,1335,4672,546,5888,2,-2,?
2017-03-27 15:24:00.508000,773,6304,-220,5496,-517,8144,-556,7536,212,736,535,7776,92,6216,230,6136,1614,6136,86,664,652,3832,-4,5200,1319,4672,531,5888,2,-1,?
2017-03-27 15:24:00.519000,753,6304,-217,5496,-517,8144,-552,7536,209,736,552,7776,55,6216,225,6136,1603,6136,84,664,653,3832,-24,5200,1315,4672,505,5888,2,-2,?
2017-03-27 15:24:00.527000,746,6304,-235,5496,-516,8144,-570,7536,218,736,577,7776,34,6216,225,6136,1591,6136,76,664,651,3832,-37,5200,1312,4672,503,5888,2,-1,?
2017-03-27 15:24:00.535000,740,6304,-250,5496,-521,8144,-574,7536,228,736,590,7776,56,6216,234,6136,1590,6136,61,664,644,3832,-31,5200,1302,4672,505,5888,2,-1,?
2017-03-27 15:24:00.543000,734,6312,-248,5496,-528,8144,-568,7536,229,736,581,7776,93,6216,241,6136,1596,6136,56,664,643,3832,-34,5200,1307,4672,497,5888,2,-1,?
2017-03-27 15:24:00.550000,747,6312,-246,5488,-526,8144,-574,7536,226,736,562,7776,107,6216,239,6136,1595,6136,60,664,648,3832,-35,5200,1322,4672,497,5888,2,-1,?
2017-03-27 15:24:00.559000,759,6312,-243,5488,-515,8144,-575,7536,222,736,560,7776,92,6216,228,6136,1595,6136,65,664,647,3832,-20,5200,1321,4672,502,5888,2,-1,?
2017-03-27 15:24:00.565000,749,6312,-235,5488,-514,8136,-570,7536,223,736,569,7776,70,6216,224,6136,1602,6136,70,664,641,3832,-16,5200,1312,4672,499,5888,2,-1,?
2017-03-27 15:24:00.573000,731,6312,-232,5488,-516,8136,-568,7536,226,736,566,7776,53,6216,229,6136,1597,6136,68,664,643,3832,-23,5200,1316,4672,500,5888,2,-1,?
2017-03-27 15:24:00.581000,738,6312,-245,5488,-516,8136,-568,7536,223,736,564,7776,47,6216,230,6136,1583,6136,63,664,652,3832,-25,5200,1328,4672,505,5888,2,-1,?
2017-03-27 15:24:00.588000,759,6312,-247,5488,-517,8136,-566,7536,224,736,565,7784,61,6216,229,6136,1580,6136,74,664,651,3832,-24,5200,1334,4672,509,5888,2,-1,?
2017-03-27 15:24:00.595000,758,6312,-230,5488,-508,8136,-561,7536,234,736,566,7784,91,6224,231,6136,1596,6136,85,664,650,3832,-14,5200,1334,4672,514,5888,2,-1,?
2017-03-27 15:24:00.603000,744,6312,-228,5488,-495,8136,-556,7536,236,736,568,7784,124,6224,235,6112,1619,6136,85,664,650,3832,-6,5200,1330,4672,517,5888,2,-1,?
2017-03-27 15:24:00.613000,739,6312,-236,5488,-489,8136,-551,7536,235,736,569,7784,134,6224,237,6112,1624,6120,90,664,647,3832,-15,5200,1326,4672,520,5888,2,-1,?
2017-03-27 15:24:00.619000,739,6312,-225,5488,-478,8136,-553,7536,234,736,566,7784,124,6224,228,6112,1609,6120,99,656,656,3832,-21,5200,1338,4672,529,5888,2,-1,?
2017-03-27 15:24:00.627000,735,6312,-216,5488,-477,8136,-561,7536,221,736,565,7784,108,6224,217,6112,1594,6120,90,656,650,3816,-17,5200,1341,4672,527,5888,2,-1,?
2017-03-27 15:24:00.634000,740,6312,-229,5488,-495,8136,-568,7536,212,736,561,7784,86,6224,222,6112,1585,6120,73,656,632,3816,-24,5192,1334,4672,517,5888,2,-1,?
2017-03-27 15:24:00.642000,749,6312,-238,5488,-499,8136,-565,7536,209,736,539,7784,60,6224,225,6112,1584,6120,72,656,631,3816,-33,5192,1336,4696,522,5888,2,-1,?
2017-03-27 15:24:00.650000,736,6312,-236,5488,-492,8136,-559,7536,212,736,533,7784,56,6224,220,6112,1595,6120,74,648,634,3816,-32,5192,1334,4696,525,5888,2,-1,?
2017-03-27 15:24:00.660000,730,6312,-231,5488,-493,8136,-560,7536,221,736,557,7784,84,6224,227,6112,1603,6120,75,648,634,3816,-22,5192,1333,4696,509,5888,2,-1,?
2017-03-27 15:24:00.666000,750,6312,-225,5488,-488,8136,-559,7536,225,736,569,7784,111,6224,241,6112,1604,6120,86,648,644,3816,-10,5192,1345,4696,496,5888,2,-1,?
2017-03-27 15:24:00.674000,750,6312,-223,5488,-481,8136,-557,7536,218,736,551,7784,116,6224,238,6112,1610,6120,98,648,651,3816,-15,5192,1346,4696,498,5888,2,-1,?
2017-03-27 15:24:00.681000,729,6312,-219,5488,-476,8136,-556,7536,203,736,534,7784,112,6224,229,6112,1609,6120,94,648,650,3816,-32,5192,1340,4696,511,5888,2,-1,?
2017-03-27 15:24:00.691000,743,6312,-227,5488,-475,8136,-553,7536,199,736,536,7784,108,6224,227,6112,1599,6120,91,648,649,3816,-25,5192,1351,4696,523,5888,2,-1,?
2017-03-27 15:24:00.697000,758,6312,-239,5488,-492,8136,-559,7536,197,736,535,7784,85,6224,224,6112,1584,6120,87,648,642,3816,-19,5192,1351,4696,526,5888,2,-1,?
2017-03-27 15:24:00.705000,732,6312,-232,5488,-506,8136,-573,7536,191,736,530,7784,50,6224,220,6112,1572,6120,64,648,630,3816,-44,5192,1326,4696,515,5888,2,-1,?
2017-03-27 15:24:00.712000,721,6312,-227,5488,-501,8136,-575,7536,197,736,549,7784,46,6224,221,6112,1573,6120,50,648,630,3816,-56,5192,1320,4696,510,5888,2,-1,?
2017-03-27 15:24:00.720000,736,6312,-235,5488,-498,8136,-561,7536,211,736,563,7784,71,6224,227,6112,1579,6120,64,648,635,3816,-45,5192,1333,4696,519,5888,2,-1,?
2017-03-27 15:24:00.728000,731,6312,-230,5488,-490,8136,-550,7536,213,736,543,7784,96,6224,233,6112,1587,6120,83,648,635,3816,-45,5192,1332,4696,522,5888,2,-1,?
2017-03-27 15:24:00.738000,734,6312,-220,5488,-484,8136,-557,7536,200,736,522,7784,109,6224,232,6112,1590,6120,78,648,638,3816,-49,5192,1334,4696,521,5888,2,-1,?
2017-03-27 15:24:00.745000,754,6312,-226,5488,-493,8136,-559,7536,202,736,530,7784,108,6224,226,6112,1590,6120,70,648,645,3816,-44,5192,1345,4696,524,5888,2,-1,?
2017-03-27 15:24:00.753000,753,6312,-229,5488,-491,8136,-555,7536,211,736,555,7784,94,6224,220,6112,1588,6120,80,648,646,3816,-47,5192,1348,4696,531,5888,2,-1,?
2017-03-27 15:24:00.760000,733,6312,-228,5488,-491,8136,-561,7536,210,736,566,7784,80,6224,222,6112,1570,6120,61,648,639,3816,-64,5192,1340,4696,527,5888,2,-1,?
2017-03-27 15:24:00.767000,718,6312,-233,5488,-499,8136,-565,7536,204,736,547,7784,71,6224,225,6112,1556,6120,33,648,631,3816,-69,5192,1326,4696,510,5888,2,-1,?
2017-03-27 15:24:00.777000,714,6312,-228,5488,-497,8136,-556,7536,197,736,527,7784,55,6224,226,6112,1566,6120,59,648,638,3816,-56,5192,1323,4696,506,5888,2,-1,?
2017-03-27 15:24:00.784000,722,6312,-220,5488,-491,8136,-550,7536,192,736,530,7784,44,6224,230,6112,1573,6120,104,648,647,3816,-41,5192,1339,4696,507,5888,2,-1,?
2017-03-27 15:24:00.794000,728,6312,-221,5488,-491,8136,-554,7536,191,736,526,7784,68,6224,235,6112,1589,6120,131,648,651,3816,-28,5192,1353,4696,507,5888,2,-1,?
2017-03-27 15:24:00.800000,727,6312,-227,5488,-495,8136,-556,7536,196,736,522,7784,110,6224,240,6112,1625,6120,165,648,663,3816,-16,5192,1353,4696,510,5888,2,-1,?
2017-03-27 15:24:00.811000,717,6312,-238,5488,-520,8136,-562,7536,201,736,543,7784,134,6224,243,6112,1635,6120,182,648,656,3816,-16,5192,1352,4696,481,5888,2,-1,?
2017-03-27 15:24:00.816000,710,6312,-248,5488,-546,8136,-569,7536,208,736,563,7784,136,6224,243,6112,1619,6120,172,648,636,3816,-22,5192,1351,4696,437,5888,2,-1,?
2017-03-27 15:24:00.823000,715,6312,-240,5488,-543,8136,-559,7536,226,736,573,7784,135,6224,242,6112,1628,6120,196,648,645,3816,-6,5192,1359,4696,442,5888,2,-1,?
2017-03-27 15:24:00.833000,724,6312,-232,5488,-541,8136,-547,7536,233,736,575,7784,136,6224,240,6112,1649,6120,233,648,667,3816,16,5192,1378,4696,472,5888,2,-1,?
2017-03-27 15:24:00.841000,735,6312,-242,5488,-558,8136,-553,7536,217,736,562,7784,117,6224,238,6112,1646,6120,227,648,671,3816,18,5192,1388,4696,474,5888,2,-1,?
2017-03-27 15:24:00.848000,748,6312,-255,5488,-570,8136,-564,7536,205,736,544,7784,80,6224,236,6112,1643,6120,225,648,673,3816,28,5192,1390,4696,476,5888,2,-1,?
2017-03-27 15:24:00.855000,740,6312,-252,5488,-567,8136,-561,7536,212,736,534,7784,72,6224,237,6112,1653,6120,238,648,676,3816,37,5192,1388,4696,488,5888,2,-1,?
2017-03-27 15:24:00.863000,727,6312,-241,5488,-561,8136,-560,7536,210,736,539,7784,91,6224,236,6112,1658,6120,242,648,676,3816,26,5192,1380,4696,486,5888,2,-1,?
2017-03-27 15:24:00.870000,735,6312,-239,5488,-552,8136,-557,7536,213,736,562,7784,107,6224,237,6112,1652,6120,240,648,670,3816,30,5192,1371,4696,482,5888,2,-1,?
2017-03-27 15:24:00.879000,734,6312,-249,5488,-554,8136,-552,7536,227,736,579,7784,126,6224,239,6112,1645,6120,228,648,665,3816,40,5192,1375,4696,477,5888,2,-1,?
2017-03-27 15:24:00.890000,725,6312,-258,5488,-576,8136,-565,7536,224,736,578,7784,145,6224,244,6112,1642,6120,201,648,656,3816,17,5192,1373,4696,464,5888,2,-1,?
2017-03-27 15:24:00.895000,731,6312,-254,5488,-585,8136,-578,7536,217,736,580,7784,149,6224,247,6112,1649,6120,202,648,655,3816,4,5192,1365,4696,469,5888,2,-1,?
2017-03-27 15:24:00.902000,736,6312,-247,5488,-571,8136,-568,7536,214,736,580,7784,134,6224,244,6112,1657,6120,225,648,669,3816,27,5192,1377,4696,495,5888,2,-1,?
2017-03-27 15:24:00.911000,732,6312,-246,5488,-563,8136,-562,7536,203,736,565,7784,106,6224,236,6112,1646,6120,226,648,673,3816,37,5192,1385,4696,502,5888,2,-1,?
2017-03-27 15:24:00.918000,743,6312,-249,5488,-578,8136,-575,7536,195,736,558,7784,81,6224,233,6112,1630,6120,210,648,665,3816,19,5192,1376,4696,492,5888,2,-1,?
2017-03-27 15:24:00.925000,749,6312,-249,5488,-580,8136,-584,7536,201,736,562,7784,90,6224,238,6112,1626,6120,204,648,664,3816,5,5192,1373,4696,496,5888,2,-1,?
2017-03-27 15:24:00.932000,729,6312,-251,5488,-570,8136,-576,7536,202,736,563,7784,115,6224,239,6112,1636,6120,213,648,670,3816,12,5192,1381,4696,502,5888,2,-1,?
2017-03-27 15:24:00.941000,722,6312,-258,5488,-574,8136,-574,7536,202,736,568,7784,121,6224,235,6112,1646,6120,217,648,673,3816,29,5192,1383,4696,500,5888,2,-1,?
2017-03-27 15:24:00.948000,730,6312,-261,5488,-580,8136,-585,7536,205,736,573,7784,110,6224,234,6112,1632,6120,201,648,662,3816,14,5192,1376,4696,499,5888,2,-1,?
2017-03-27 15:24:00.956000,723,6312,-256,5488,-582,8136,-589,7536,194,736,563,7784,106,6224,235,6112,1614,6120,188,648,650,3816,-21,5192,1370,4696,484,5888,2,-1,?
2017-03-27 15:24:00.964000,718,6312,-252,5488,-580,8136,-582,7536,187,736,562,7784,112,6224,237,6112,1626,6120,204,648,658,3816,-13,5192,1360,4696,464,5888,2,-2,?
2017-03-27 15:24:00.972000,731,6312,-253,5488,-576,8136,-578,7536,194,736,563,7784,107,6224,234,6112,1637,6120,216,648,665,3816,14,5192,1352,4696,469,5888,2,-1,?
2017-03-27 15:24:00.979000,736,6312,-252,5488,-577,8136,-584,7536,187,736,547,7784,89,6224,230,6112,1609,6120,194,648,654,3816,-2,5192,1345,4696,481,5888,2,-2,?
2017-03-27 15:24:00.989000,715,6312,-255,5488,-584,8136,-589,7536,169,736,531,7784,73,6224,231,6112,1585,6120,173,648,640,3816,-33,5192,1331,4696,470,5888,2,-1,?
2017-03-27 15:24:00.995000,707,6312,-263,5488,-588,8136,-589,7536,174,736,535,7784,81,6224,235,6112,1594,6120,166,648,640,3816,-45,5192,1328,4696,464,5888,2,-2,?
2017-03-27 15:24:01.004000,725,6312,-260,5488,-590,8136,-585,7536,181,736,540,7784,92,6224,235,6112,1604,6120,157,648,640,3816,-57,5192,1337,4696,470,5888,2,-1,?
2017-03-27 15:24:01.011000,721,6312,-256,5488,-590,8136,-585,7536,175,736,534,7784,81,6224,230,6112,1596,6120,149,648,631,3816,-64,5192,1336,4696,470,5888,2,-2,?
2017-03-27 15:24:01.019000,704,6312,-263,5488,-584,8136,-590,7536,176,736,531,7784,65,6224,224,6112,1575,6120,141,648,626,3816,-61,5192,1332,4696,469,5888,2,-1,?
2017-03-27 15:24:01.026000,714,6312,-265,5488,-568,8136,-589,7536,185,736,532,7784,69,6224,225,6112,1568,6120,141,648,624,3816,-61,5192,1332,4696,468,5888,2,-1,?
2017-03-27 15:24:01.035000,724,6312,-262,5488,-547,8136,-578,7536,188,736,543,7784,85,6224,232,6112,1589,6120,152,648,625,3816,-62,5192,1332,4696,472,5888,2,-1,?
2017-03-27 15:24:01.042000,710,6312,-262,5488,-542,8136,-575,7536,190,736,559,7784,92,6224,238,6112,1601,6120,144,648,625,3816,-60,5192,1338,4696,481,5888,2,-1,?
2017-03-27 15:24:01.050000,706,6320,-265,5488,-546,8136,-584,7536,198,736,566,7784,91,6224,236,6112,1588,6120,134,648,622,3816,-63,5192,1341,4696,481,5888,2,-1,?
2017-03-27 15:24:01.059000,715,6320,-272,5488,-545,8136,-586,7536,199,736,562,7784,94,6224,234,6112,1581,6120,156,648,627,3816,-60,5192,1339,4696,476,5888,2,-1,?
2017-03-27 15:24:01.065000,721,6320,-284,5488,-554,8136,-583,7536,191,736,562,7784,99,6224,237,6112,1597,6120,189,648,631,3816,-44,5192,1345,4696,478,5904,2,-1,?
2017-03-27 15:24:01.074000,724,6320,-285,5488,-567,8152,-589,7536,191,736,567,7784,109,6224,243,6112,1621,6120,219,648,636,3816,-32,5192,1353,4696,487,5904,2,-1,?
2017-03-27 15:24:01.082000,716,6320,-278,5488,-566,8152,-594,7520,202,736,572,7784,121,6224,240,6112,1639,6120,255,648,651,3816,-23,5192,1354,4696,496,5904,2,-1,?
2017-03-27 15:24:01.088000,709,6320,-283,5488,-572,8152,-596,7520,201,760,571,7784,127,6224,236,6112,1652,6120,283,648,660,3816,-5,5192,1358,4696,500,5904,2,-1,?
2017-03-27 15:24:01.097000,715,6320,-286,5488,-581,8152,-604,7520,188,760,561,7784,127,6224,239,6112,1667,6120,311,648,659,3816,24,5192,1366,4696,508,5904,2,-1,?
2017-03-27 15:24:01.103000,729,6320,-284,5488,-589,8152,-606,7520,194,760,560,7784,132,6208,245,6112,1678,6120,343,648,663,3816,44,5192,1369,4696,517,5904,2,-1,?
2017-03-27 15:24:01.112000,728,6320,-288,5488,-603,8152,-602,7520,207,760,566,7784,133,6208,248,6128,1674,6120,345,648,668,3816,41,5192,1364,4696,498,5904,2,-1,?
2017-03-27 15:24:01.119000,721,6320,-289,5488,-608,8152,-603,7520,203,760,566,7784,127,6208,246,6128,1681,6128,327,648,668,3816,41,5192,1367,4696,472,5904,2,-1,?
2017-03-27 15:24:01.127000,720,6320,-287,5488,-601,8152,-604,7520,201,760,567,7784,127,6208,245,6128,1689,6128,326,664,663,3816,53,5192,1380,4696,478,5904,2,-1,?
2017-03-27 15:24:01.135000,725,6320,-288,5488,-606,8152,-602,7520,204,760,570,7784,132,6208,247,6128,1680,6128,333,664,665,3824,47,5192,1388,4696,501,5904,2,-1,?
2017-03-27 15:24:01.147000,729,6320,-287,5488,-611,8152,-606,7520,197,760,567,7784,126,6208,248,6128,1677,6128,334,664,667,3824,31,5208,1388,4696,503,5904,2,-1,?
2017-03-27 15:24:01.152000,719,6320,-283,5488,-606,8152,-607,7520,194,760,560,7784,115,6208,247,6128,1682,6128,326,664,662,3824,32,5208,1382,4672,503,5904,2,-1,?
2017-03-27 15:24:01.160000,710,6320,-287,5488,-609,8152,-604,7520,200,760,562,7784,113,6208,245,6128,1670,6128,314,656,662,3824,35,5208,1385,4672,512,5904,2,-1,?
2017-03-27 15:24:01.167000,704,6320,-288,5488,-611,8152,-605,7520,206,760,566,7784,127,6208,240,6128,1665,6128,307,656,662,3824,29,5208,1388,4672,507,5904,2,-1,?
2017-03-27 15:24:01.177000,702,6320,-285,5488,-604,8152,-608,7520,200,760,562,7784,150,6208,241,6128,1676,6128,304,656,657,3824,31,5208,1378,4672,497,5904,2,-1,?
2017-03-27 15:24:01.182000,711,6320,-290,5488,-613,8152,-615,7520,180,760,560,7784,151,6208,248,6128,1670,6128,298,656,654,3824,30,5208,1374,4672,497,5904,2,-1,?
2017-03-27 15:24:01.191000,724,6320,-293,5488,-622,8152,-620,7520,175,760,564,7784,135,6208,243,6128,1663,6128,297,656,656,3824,22,5208,1386,4672,497,5904,2,-1,?
2017-03-27 15:24:01.198000,721,6320,-288,5488,-616,8152,-617,7520,187,760,564,7784,129,6208,234,6128,1669,6128,292,656,659,3824,23,5208,1388,4672,489,5904,2,-1,?
2017-03-27 15:24:01.209000,705,6320,-283,5488,-614,8152,-614,7520,183,760,558,7784,126,6208,236,6128,1661,6128,280,656,649,3824,21,5208,1373,4672,486,5904,2,-1,?
2017-03-27 15:24:01.215000,712,6320,-289,5488,-620,8152,-615,7520,171,760,559,7784,112,6208,237,6128,1642,6128,273,656,637,3824,13,5208,1368,4672,493,5904,2,-1,?
2017-03-27 15:24:01.225000,732,6320,-295,5488,-620,8152,-616,7520,177,760,556,7784,105,6208,236,6128,1642,6128,277,656,648,3824,15,5208,1375,4672,500,5904,2,-1,?
2017-03-27 15:24:01.231000,722,6320,-290,5488,-613,8152,-615,7520,183,760,541,7784,106,6208,237,6128,1653,6128,278,656,654,3824,12,5208,1372,4672,498,5904,2,-1,?
2017-03-27 15:24:01.239000,710,6320,-284,5488,-617,8152,-616,7520,177,760,533,7784,89,6208,233,6128,1637,6128,269,656,638,3824,-3,5208,1366,4672,493,5904,2,-1,?
2017-03-27 15:24:01.245000,725,6320,-286,5488,-632,8152,-627,7520,172,760,536,7784,71,6208,230,6128,1611,6128,251,656,628,3824,-7,5208,1364,4672,489,5904,2,-1,?
2017-03-27 15:24:01.253000,722,6320,-290,5488,-635,8152,-629,7520,170,760,531,7784,68,6208,237,6128,1608,6128,241,656,626,3824,-1,5208,1366,4672,478,5904,2,-1,?
2017-03-27 15:24:01.261000,700,6320,-285,5488,-622,8152,-620,7520,167,760,528,7784,74,6208,241,6128,1621,6128,252,656,625,3824,-7,5208,1366,4672,477,5904,2,-1,?
2017-03-27 15:24:01.270000,702,6320,-278,5488,-617,8152,-619,7520,172,760,551,7784,91,6208,238,6128,1630,6128,257,656,613,3824,-9,5208,1359,4672,469,5904,2,-1,?
2017-03-27 15:24:01.277000,722,6320,-286,5488,-637,8152,-620,7520,178,760,566,7784,97,6208,238,6128,1621,6128,235,656,590,3824,-3,5208,1360,4672,443,5904,2,-1,?
2017-03-27 15:24:01.284000,721,6320,-295,5488,-643,8152,-616,7520,179,760,545,7784,78,6208,241,6128,1613,6128,228,656,590,3824,-3,5208,1356,4672,436,5904,2,-1,?
2017-03-27 15:24:01.293000,705,6320,-286,5488,-629,8152,-606,7520,182,760,537,7784,72,6208,243,6128,1624,6128,267,656,612,3824,3,5208,1333,4672,461,5904,2,-1,?
2017-03-27 15:24:01.301000,724,6320,-277,5488,-630,8152,-600,7520,188,760,559,7784,94,6208,243,6128,1641,6128,306,656,618,3824,19,5208,1343,4672,480,5904,2,-1,?
2017-03-27 15:24:01.308000,750,6320,-285,5488,-638,8152,-603,7520,196,760,570,7784,107,6208,243,6128,1658,6128,326,656,614,3824,26,5208,1400,4672,477,5904,2,-1,?
2017-03-27 15:24:01.317000,727,6320,-288,5488,-640,8152,-610,7520,196,760,564,7784,100,6208,244,6128,1668,6128,331,656,622,3824,27,5208,1428,4672,475,5904,2,-1,?
2017-03-27 15:24:01.322000,697,6320,-282,5488,-647,8152,-614,7520,182,760,561,7784,90,6208,239,6128,1649,6128,307,656,625,3824,24,5208,1409,4672,473,5904,2,-1,?
2017-03-27 15:24:01.331000,701,6320,-289,5488,-655,8152,-616,7520,177,760,563,7784,85,6208,234,6128,1630,6128,289,656,613,3824,11,5208,1394,4672,467,5904,2,-1,?
2017-03-27 15:24:01.339000,703,6320,-298,5488,-651,8152,-618,7520,183,760,561,7784,88,6208,240,6128,1637,6128,293,656,616,3824,14,5208,1401,4672,470,5904,2,-1,?
2017-03-27 15:24:01.347000,696,6320,-298,5488,-651,8152,-621,7520,179,760,549,7784,99,6208,246,6128,1636,6128,288,656,619,3824,21,5208,1389,4672,467,5904,2,-1,?
2017-03-27 15:24:01.355000,700,6320,-302,5488,-654,8152,-624,7520,173,760,538,7784,98,6208,243,6128,1622,6128,280,656,608,3824,5,5208,1343,4672,460,5904,2,-1,?
2017-03-27 15:24:01.364000,699,6320,-303,5488,-647,8152,-620,7520,183,760,540,7784,85,6208,238,6128,1620,6128,286,656,607,3824,-1,5208,1318,4672,458,5904,2,-1,?
2017-03-27 15:24:01.371000,707,6320,-302,5488,-643,8152,-612,7520,190,760,540,7784,81,6208,235,6128,1626,6128,293,656,619,3824,14,5208,1333,4672,464,5904,2,-1,?
2017-03-27 15:24:01.378000,724,6320,-299,5488,-649,8152,-617,7520,176,760,531,7784,80,6208,234,6128,1621,6128,287,656,622,3824,9,5208,1346,4672,469,5904,2,-1,?
2017-03-27 15:24:01.388000,711,6320,-287,5488,-648,8152,-623,7520,167,760,531,7784,84,6208,240,6128,1616,6128,278,656,614,3824,-4,5208,1344,4672,466,5904,2,-1,?
2017-03-27 15:24:01.396000,693,6320,-281,5488,-639,8152,-615,7520,180,760,539,7784,89,6208,248,6128,1627,6128,282,656,616,3824,3,5208,1348,4672,461,5904,2,-1,?
2017-03-27 15:24:01.403000,703,6320,-294,5488,-642,8152,-610,7520,186,760,541,7784,88,6208,248,6128,1631,6128,285,656,617,3824,3,5208,1351,4672,460,5904,2,-1,?
2017-03-27 15:24:01.410000,716,6320,-298,5488,-650,8152,-615,7520,181,760,545,7784,89,6208,240,6128,1622,6128,278,656,613,3824,-1,5208,1345,4672,458,5904,2,-1,?
2017-03-27 15:24:01.416000,719,6320,-282,5488,-632,8152,-616,7520,187,760,549,7784,100,6208,238,6128,1636,6128,279,656,620,3824,1,5208,1347,4672,469,5904,2,-1,?
2017-03-27 15:24:01.427000,720,6320,-279,5488,-621,8152,-610,7520,191,760,549,7784,111,6208,243,6128,1650,6128,278,656,622,3824,-1,5208,1349,4672,477,5904,2,-1,?
2017-03-27 15:24:01.434000,711,6320,-289,5488,-639,8152,-621,7520,177,760,549,7784,100,6208,237,6128,1623,6128,261,656,612,3824,0,5208,1339,4672,444,5904,2,-1,?
2017-03-27 15:24:01.443000,700,6320,-294,5488,-653,8152,-635,7520,180,760,560,7784,79,6208,233,6128,1598,6128,248,656,605,3824,1,5208,1336,4672,409,5904,2,-1,?
2017-03-27 15:24:01.450000,712,6320,-288,5488,-637,8152,-624,7520,199,760,570,7784,85,6208,239,6128,1618,6128,258,656,611,3824,-1,5208,1348,4672,426,5904,2,-1,?
2017-03-27 15:24:01.458000,732,6320,-281,5488,-622,8152,-611,7520,193,760,553,7784,100,6208,240,6128,1637,6128,265,656,622,3824,9,5208,1355,4672,458,5904,2,-1,?
2017-03-27 15:24:01.465000,727,6320,-284,5488,-635,8152,-616,7520,176,760,532,7784,90,6208,238,6128,1629,6128,261,656,623,3824,19,5208,1351,4672,461,5904,2,-1,?
2017-03-27 15:24:01.473000,704,6320,-286,5488,-649,8152,-624,7520,175,760,539,7784,79,6208,242,6128,1623,6128,257,656,616,3824,4,5208,1348,4672,456,5904,2,-1,?
2017-03-27 15:24:01.481000,704,6320,-285,5488,-642,8152,-621,7520,180,760,561,7784,89,6208,242,6128,1623,6128,257,656,620,3824,-2,5208,1353,4672,465,5904,2,-1,?
2017-03-27 15:24:01.488000,716,6320,-285,5488,-637,8152,-617,7520,179,760,561,7784,87,6208,236,6128,1622,6128,251,656,619,3824,-3,5208,1353,4672,465,5904,2,-1,?
2017-03-27 15:24:01.495000,712,6320,-292,5488,-648,8152,-619,7520,183,760,557,7784,75,6208,238,6128,1614,6128,230,656,608,3824,-18,5208,1345,4672,451,5904,2,-1,?
2017-03-27 15:24:01.503000,699,6320,-297,5488,-654,8152,-626,7520,190,760,567,7784,78,6208,242,6128,1602,6128,217,656,608,3824,-21,5208,1348,4672,441,5904,2,-1,?
2017-03-27 15:24:01.510000,690,6320,-299,5488,-654,8152,-627,7520,187,760,561,7784,73,6208,241,6128,1595,6128,228,656,608,3824,-13,5208,1359,4672,436,5904,2,-1,?
2017-03-27 15:24:01.519000,687,6320,-313,5488,-672,8152,-622,7520,177,760,540,7784,61,6208,238,6128,1597,6128,241,656,603,3824,-13,5208,1361,4672,428,5904,2,-1,?
2017-03-27 15:24:01.527000,687,6320,-313,5488,-681,8152,-627,7520,175,760,529,7784,60,6208,239,6128,1609,6128,241,656,605,3824,-17,5208,1351,4672,427,5904,2,-1,?
2017-03-27 15:24:01.535000,681,6320,-293,5488,-665,8152,-629,7520,184,760,530,7784,68,6208,241,6128,1614,6128,243,656,607,3824,-18,5208,1347,4672,434,5904,2,-1,?
2017-03-27 15:24:01.543000,676,6320,-293,5488,-652,8152,-621,7520,183,760,536,7784,70,6208,243,6128,1611,6128,244,656,601,3824,-27,5208,1349,4672,434,5904,2,-1,?
2017-03-27 15:24:01.550000,679,6320,-310,5488,-661,8152,-615,7520,180,760,542,7784,71,6208,244,6128,1617,6128,238,656,592,3824,-32,5208,1345,4672,423,5904,2,-1,?
2017-03-27 15:24:01.557000,686,6320,-314,5480,-674,8152,-618,7520,183,760,541,7784,82,6208,242,6128,1623,6128,238,656,592,3824,-14,5208,1346,4672,421,5904,2,-1,?
2017-03-27 15:24:01.565000,686,6320,-315,5480,-673,8152,-625,7520,184,760,536,7784,82,6208,239,6128,1612,6128,242,656,596,3824,-5,5208,1357,4672,422,5888,2,-1,?
2017-03-27 15:24:01.573000,688,6320,-317,5480,-668,8128,-622,7520,185,760,536,7784,74,6208,240,6128,1604,6128,243,656,595,3824,-12,5208,1360,4672,418,5888,2,-1,?
2017-03-27 15:24:01.581000,688,6320,-315,5480,-670,8128,-614,7520,186,760,540,7784,79,6208,242,6128,1611,6128,243,656,593,3824,-13,5208,1351,4672,414,5888,2,-1,?
2017-03-27 15:24:01.590000,680,6320,-318,5480,-676,8128,-612,7520,192,760,539,7784,86,6208,240,6128,1621,6128,247,656,591,3824,-4,5208,1347,4672,396,5888,2,-1,?
2017-03-27 15:24:01.599000,683,6320,-321,5480,-678,8128,-617,7520,189,760,538,7792,80,6208,238,6128,1613,6128,247,656,590,3824,-8,5208,1354,4672,376,5888,2,-1,?
2017-03-27 15:24:01.604000,688,6320,-317,5480,-673,8128,-619,7520,177,760,539,7792,72,6232,240,6128,1596,6128,242,656,588,3824,-27,5208,1356,4672,385,5888,2,-1,?
2017-03-27 15:24:01.614000,680,6320,-314,5480,-669,8128,-615,7520,172,760,533,7792,74,6232,242,6120,1598,6128,241,656,588,3824,-20,5208,1349,4672,410,5888,2,-1,?
2017-03-27 15:24:01.621000,675,6320,-314,5480,-672,8128,-612,7520,186,760,533,7792,84,6232,243,6120,1614,6120,242,656,591,3824,1,5208,1347,4672,411,5888,2,-2,?
2017-03-27 15:24:01.627000,686,6320,-319,5480,-675,8128,-613,7520,205,760,556,7792,102,6232,245,6120,1618,6120,239,640,585,3824,-6,5208,1353,4672,397,5888,2,-1,?
2017-03-27 15:24:01.637000,693,6320,-313,5480,-671,8128,-616,7520,198,760,555,7792,101,6232,243,6120,1611,6120,238,640,586,3832,-20,5208,1357,4672,403,5888,2,-1,?
2017-03-27 15:24:01.644000,690,6320,-301,5480,-670,8128,-616,7520,178,760,519,7792,74,6232,234,6120,1600,6120,241,640,592,3832,-11,5208,1358,4672,414,5888,2,-1,?
2017-03-27 15:24:01.651000,689,6320,-304,5480,-668,8128,-618,7520,172,760,512,7792,52,6232,234,6120,1595,6120,236,640,589,3832,-14,5208,1349,4672,415,5888,2,-1,?
2017-03-27 15:24:01.661000,692,6320,-309,5480,-660,8128,-623,7520,166,760,522,7792,53,6232,242,6120,1598,6120,220,656,590,3832,-38,5208,1341,4672,415,5888,2,-2,?
2017-03-27 15:24:01.669000,700,6320,-304,5480,-658,8128,-622,7520,152,760,516,7792,60,6232,241,6120,1592,6120,212,656,594,3808,-34,5208,1349,4672,424,5888,2,-1,?
2017-03-27 15:24:01.676000,707,6320,-298,5480,-658,8128,-621,7520,154,760,518,7792,57,6232,238,6120,1584,6120,220,656,596,3808,-17,5200,1354,4672,438,5888,2,-2,?
2017-03-27 15:24:01.683000,699,6320,-296,5480,-648,8128,-618,7520,173,760,535,7792,51,6232,241,6120,1598,6120,223,656,594,3808,-24,5200,1326,4672,437,5888,2,-1,?
2017-03-27 15:24:01.692000,685,6320,-304,5480,-642,8128,-618,7520,172,760,531,7792,45,6232,237,6120,1597,6120,204,656,582,3808,-42,5200,1293,4672,425,5888,2,-2,?
2017-03-27 15:24:01.699000,687,6320,-307,5480,-651,8128,-629,7520,158,760,513,7792,36,6232,231,6120,1564,6120,182,656,576,3808,-52,5200,1295,4672,415,5888,2,-2,?
2017-03-27 15:24:01.707000,696,6320,-303,5480,-663,8128,-633,7520,155,760,503,7792,33,6232,238,6120,1556,6120,183,656,578,3808,-44,5200,1311,4672,410,5888,2,-2,?
2017-03-27 15:24:01.714000,694,6320,-307,5480,-663,8128,-624,7520,159,760,515,7792,42,6232,243,6120,1579,6120,198,656,579,3808,-27,5200,1317,4672,407,5888,2,-2,?
2017-03-27 15:24:01.722000,691,6320,-306,5480,-655,8128,-619,7520,166,760,530,7792,50,6232,243,6120,1590,6120,205,656,582,3808,-15,5200,1321,4672,415,5888,2,-2,?
2017-03-27 15:24:01.729000,693,6320,-292,5480,-652,8128,-619,7520,173,760,518,7792,44,6232,244,6120,1592,6120,210,656,584,3808,-15,5200,1315,4672,423,5888,2,-2,?
2017-03-27 15:24:01.739000,698,6320,-286,5480,-654,8128,-618,7520,163,760,499,7792,35,6232,241,6120,1590,6120,210,656,587,3808,-25,5200,1311,4672,414,5888,2,-1,?
2017-03-27 15:24:01.747000,703,6320,-286,5480,-647,8128,-618,7520,152,760,499,7792,25,6232,236,6120,1583,6120,197,656,588,3808,-34,5200,1325,4672,397,5888,2,-2,?
2017-03-27 15:24:01.754000,705,6320,-282,5480,-646,8128,-616,7520,152,760,505,7792,29,6232,237,6120,1585,6120,201,656,587,3808,-27,5200,1334,4672,394,5888,2,-1,?
2017-03-27 15:24:01.760000,703,6320,-291,5480,-659,8128,-617,7520,152,760,499,7792,42,6232,242,6120,1581,6120,201,656,586,3808,-26,5200,1333,4672,398,5888,2,-1,?
2017-03-27 15:24:01.768000,690,6320,-292,5480,-655,8128,-621,7520,141,760,483,7792,29,6232,241,6120,1567,6120,181,656,575,3808,-54,5200,1322,4672,394,5888,2,-1,?
2017-03-27 15:24:01.778000,677,6320,-279,5480,-636,8128,-618,7520,137,760,477,7792,9,6232,240,6120,1568,6120,178,656,571,3808,-61,5200,1310,4672,403,5888,2,-1,?
2017-03-27 15:24:01.785000,686,6320,-280,5480,-631,8128,-610,7520,147,760,480,7792,21,6232,246,6120,1576,6120,183,656,578,3808,-44,5200,1312,4672,424,5888,2,-1,?
2017-03-27 15:24:01.794000,691,6320,-290,5480,-638,8128,-616,7520,151,760,484,7792,33,6232,245,6120,1573,6120,163,656,576,3808,-50,5200,1317,4672,423,5888,2,-1,?
2017-03-27 15:24:01.801000,684,6320,-286,5480,-642,8128,-624,7520,145,760,492,7792,20,6232,237,6120,1568,6120,147,656,568,3808,-66,5200,1315,4672,416,5888,2,-1,?
2017-03-27 15:24:01.809000,683,6320,-281,5480,-638,8128,-619,7520,151,760,504,7792,25,6232,236,6120,1567,6120,152,656,570,3808,-56,5200,1314,4672,418,5888,2,-1,?
2017-03-27 15:24:01.815000,681,6320,-289,5480,-629,8128,-615,7520,160,760,503,7792,39,6232,240,6120,1569,6120,142,656,570,3808,-52,5200,1311,4672,422,5888,2,-1,?
2017-03-27 15:24:01.824000,676,6320,-292,5480,-629,8128,-617,7520,159,760,502,7792,29,6232,245,6120,1570,6120,135,656,560,3808,-72,5200,1302,4672,425,5888,2,-1,?
2017-03-27 15:24:01.831000,675,6320,-290,5480,-636,8128,-621,7520,157,760,503,7792,16,6232,249,6120,1571,6120,136,656,553,3808,-79,5200,1300,4672,426,5888,2,-1,?
2017-03-27 15:24:01.841000,675,6320,-289,5480,-632,8128,-627,7520,159,760,497,7792,19,6232,243,6120,1567,6120,130,656,561,3808,-63,5200,1307,4672,429,5888,2,-1,?
2017-03-27 15:24:01.848000,678,6320,-285,5480,-628,8128,-628,7520,169,760,504,7792,36,6232,237,6120,1566,6120,134,656,566,3808,-57,5200,1306,4672,441,5888,2,-1,?
2017-03-27 15:24:01.857000,677,6320,-288,5480,-632,8128,-624,7520,172,760,510,7792,40,6232,241,6120,1580,6120,142,656,561,3808,-78,5200,1297,4672,450,5888,2,-1,?
2017-03-27 15:24:01.864000,665,6320,-297,5480,-635,8128,-631,7520,153,760,494,7792,20,6232,240,6120,1585,6120,120,656,549,3808,-97,5200,1289,4672,441,5888,2,-1,?
2017-03-27 15:24:01.872000,658,6320,-300,5480,-633,8128,-638,7520,146,760,488,7792,10,6232,233,6120,1563,6120,94,656,542,3808,-92,5200,1292,4672,433,5888,2,-1,?
2017-03-27 15:24:01.880000,662,6320,-294,5480,-630,8128,-635,7520,156,760,501,7792,21,6232,235,6120,1548,6120,105,656,548,3808,-77,5200,1309,4672,440,5888,2,-1,?
2017-03-27 15:24:01.888000,660,6320,-289,5480,-626,8128,-629,7520,155,760,505,7792,22,6232,242,6120,1559,6120,124,656,554,3808,-72,5200,1315,4672,441,5888,2,-1,?
2017-03-27 15:24:01.895000,663,6320,-290,5480,-624,8128,-629,7520,150,760,502,7792,18,6232,240,6120,1561,6120,119,656,554,3808,-82,5200,1306,4672,425,5888,2,-1,?
2017-03-27 15:24:01.902000,666,6320,-293,5480,-631,8128,-638,7520,148,760,506,7792,19,6232,229,6120,1544,6120,104,656,552,3808,-91,5200,1303,4672,399,5888,2,-1,?
2017-03-27 15:24:01.912000,653,6320,-291,5480,-637,8128,-646,7520,143,760,503,7792,12,6232,226,6120,1545,6120,99,656,546,3808,-94,5200,1301,4672,388,5888,2,-1,?
2017-03-27 15:24:01.918000,647,6320,-293,5480,-641,8128,-643,7520,141,760,494,7792,3,6232,239,6120,1553,6120,100,656,540,3808,-90,5200,1299,4672,406,5888,2,-1,?
2017-03-27 15:24:01.926000,661,6320,-297,5480,-639,8128,-637,7520,145,760,496,7792,-1,6232,248,6120,1553,6120,112,656,537,3808,-75,5200,1312,4672,428,5888,2,-1,?
2017-03-27 15:24:01.933000,672,6320,-291,5480,-635,8128,-633,7520,148,760,500,7792,-6,6232,241,6120,1561,6120,131,656,542,3808,-71,5200,1320,4672,436,5888,2,-1,?
2017-03-27 15:24:01.941000,667,6320,-288,5480,-635,8128,-635,7520,143,760,488,7792,-12,6232,237,6120,1568,6120,124,656,543,3808,-86,5200,1309,4672,432,5888,2,-1,?
2017-03-27 15:24:01.950000,658,6320,-296,5480,-638,8128,-638,7520,142,760,482,7792,-20,6232,240,6120,1557,6120,104,656,535,3808,-93,5200,1293,4672,425,5888,2,-1,?
2017-03-27 15:24:01.957000,657,6320,-291,5480,-636,8128,-635,7520,138,760,491,7792,-19,6232,236,6120,1554,6120,106,656,542,3808,-79,5200,1297,4672,431,5888,2,-2,?
2017-03-27 15:24:01.964000,671,6320,-280,5480,-622,8128,-628,7520,139,760,499,7792,-5,6232,239,6120,1571,6120,119,656,559,3808,-71,5200,1314,4672,452,5888,2,-2,?
2017-03-27 15:24:01.972000,683,6320,-279,5480,-612,8128,-624,7520,150,760,503,7792,12,6232,250,6120,1576,6120,128,656,566,3808,-67,5200,1326,4672,465,5888,2,-2,?
2017-03-27 15:24:01.980000,682,6320,-284,5480,-618,8128,-621,7520,154,760,503,7792,21,6232,252,6120,1567,6120,136,656,576,3808,-49,5200,1330,4672,461,5888,2,-2,?
2017-03-27 15:24:01.989000,675,6320,-286,5480,-630,8128,-628,7520,143,760,494,7792,17,6232,240,6120,1568,6120,137,656,568,3808,-43,5200,1326,4672,449,5888,2,-2,?
2017-03-27 15:24:01.997000,670,6320,-283,5480,-632,8128,-637,7520,138,760,487,7792,8,6232,235,6120,1559,6120,125,656,541,3808,-56,5200,1321,4672,449,5888,2,-1,?
2017-03-27 15:24:02.005000,671,6320,-282,5480,-627,8128,-629,7520,143,760,487,7792,5,6232,243,6120,1546,6120,115,656,530,3808,-55,5200,1320,4672,461,5888,2,-1,?
2017-03-27 15:24:02.014000,679,6320,-284,5480,-625,8128,-617,7520,143,760,492,7792,5,6232,247,6120,1556,6120,124,656,536,3808,-47,5200,1300,4672,465,5888,2,-1,?
2017-03-27 15:24:02.020000,689,6320,-282,5480,-624,8128,-620,7520,145,760,496,7792,2,6232,240,6120,1563,6120,133,656,544,3808,-48,5200,1305,4672,466,5888,2,-1,?
2017-03-27 15:24:02.027000,691,6320,-274,5480,-612,8128,-617,7520,149,760,496,7792,7,6232,234,6120,1558,6120,133,656,556,3808,-45,5200,1350,4672,475,5888,2,-1,?
2017-03-27 15:24:02.036000,692,6320,-274,5480,-606,8128,-613,7520,151,760,498,7792,8,6232,240,6120,1567,6120,129,656,564,3808,-40,5200,1301,4672,484,5888,2,-2,?
2017-03-27 15:24:02.044000,689,6320,-278,5480,-611,8128,-622,7520,156,760,505,7792,0,6232,246,6120,1583,6120,122,656,567,3808,-44,5200,1360,4672,473,5888,2,-2,?
2017-03-27 15:24:02.053000,679,6320,-270,5480,-609,8128,-620,7520,149,760,492,7792,7,6232,244,6120,1583,6120,120,656,578,3808,-34,5200,1714,4672,444,5888,2,-1,?
2017-03-27 15:24:02.060000,690,6312,-266,5480,-604,8128,-610,7520,139,760,473,7792,14,6232,240,6120,1559,6120,117,656,585,3808,-28,5200,1920,4672,439,5888,2,-1,?
2017-03-27 15:24:02.067000,697,6312,-275,5480,-606,8128,-621,7520,142,760,473,7792,2,6232,238,6120,1548,6120,116,656,578,3808,-29,5200,1791,4672,456,5888,2,-1,?
2017-03-27 15:24:02.077000,677,6312,-277,5480,-614,8128,-632,7520,142,760,477,7792,-11,6232,239,6120,1554,6120,112,656,570,3808,-30,5200,1620,4672,455,5896,2,-1,?
2017-03-27 15:24:02.082000,667,6312,-272,5480,-614,8144,-622,7520,136,760,486,7792,-7,6232,241,6120,1546,6120,101,656,564,3808,-52,5200,1403,4672,445,5896,2,-1,?
2017-03-27 15:24:02.093000,679,6312,-281,5480,-624,8144,-619,7536,142,760,502,7792,3,6232,241,6120,1537,6120,93,656,558,3808,-73,5200,1141,4672,449,5896,2,-1,?
2017-03-27 15:24:02.099000,684,6312,-295,5480,-659,8144,-636,7536,144,752,502,7792,2,6232,241,6120,1550,6120,84,656,560,3808,-60,5200,1120,4672,444,5896,2,-1,?
2017-03-27 15:24:02.108000,679,6312,-283,5480,-665,8144,-644,7536,135,752,488,7776,-11,6232,242,6120,1552,6120,73,656,563,3808,-56,5200,1217,4672,438,5896,2,-2,?
2017-03-27 15:24:02.113000,681,6312,-261,5480,-617,8144,-637,7536,136,752,495,7776,-19,6232,245,6120,1534,6120,56,656,565,3808,-83,5200,1202,4672,460,5896,2,-1,?
2017-03-27 15:24:02.122000,690,6312,-257,5480,-575,8144,-626,7536,146,752,502,7776,-8,6232,240,6128,1530,6120,41,656,574,3808,-85,5200,1209,4672,490,5896,2,-1,?
2017-03-27 15:24:02.128000,700,6312,-257,5480,-558,8144,-617,7536,142,752,485,7776,-7,6232,234,6128,1539,6120,25,656,573,3808,-68,5200,1254,4672,511,5896,2,-1,?
2017-03-27 15:24:02.137000,707,6312,-247,5480,-527,8144,-626,7536,125,752,468,7776,-29,6232,235,6128,1521,6120,-2,640,568,3808,-78,5200,1264,4672,527,5896,2,-1,?
2017-03-27 15:24:02.145000,710,6312,-240,5480,-504,8144,-639,7536,115,752,465,7776,-46,6232,233,6128,1481,6120,-33,640,569,3816,-101,5200,1261,4672,533,5896,2,-1,?
2017-03-27 15:24:02.152000,705,6312,-239,5480,-495,8144,-638,7536,115,752,464,7776,-48,6232,226,6128,1466,6120,-59,640,565,3816,-113,5184,1256,4672,537,5896,2,-1,?
2017-03-27 15:24:02.161000,696,6312,-232,5480,-473,8144,-635,7536,113,752,460,7776,-50,6232,224,6128,1459,6120,-87,640,562,3816,-119,5184,1258,4672,553,5896,2,-1,?
2017-03-27 15:24:02.168000,701,6312,-224,5480,-453,8144,-632,7536,106,752,464,7776,-55,6232,232,6128,1433,6120,-126,640,565,3816,-130,5184,1267,4672,574,5896,2,-1,?
2017-03-27 15:24:02.176000,717,6312,-221,5480,-441,8144,-621,7536,110,752,466,7776,-46,6232,237,6128,1437,6120,-150,640,576,3824,-135,5184,1280,4672,590,5896,2,-1,?
2017-03-27 15:24:02.185000,719,6312,-219,5480,-439,8144,-615,7536,116,752,462,7776,-35,6232,239,6128,1465,6120,-146,640,580,3824,-131,5184,1286,4672,595,5896,2,-1,?
2017-03-27 15:24:02.191000,709,6312,-221,5480,-448,8144,-621,7536,115,752,460,7776,-42,6232,234,6128,1455,6120,-144,640,564,3824,-123,5184,1279,4672,587,5896,2,-1,?
2017-03-27 15:24:02.199000,717,6312,-219,5480,-452,8144,-621,7536,117,752,468,7776,-42,6232,226,6128,1428,6120,-153,640,558,3824,-121,5184,1283,4672,571,5896,2,-1,?
2017-03-27 15:24:02.206000,723,6312,-219,5480,-457,8144,-619,7536,123,752,477,7776,-24,6232,231,6128,1426,6120,-161,640,560,3824,-132,5184,1288,4672,543,5896,2,-2,?
2017-03-27 15:24:02.214000,700,6312,-228,5480,-472,8144,-622,7536,128,752,472,7776,-23,6232,238,6128,1444,6120,-159,640,553,3824,-139,5184,1275,4672,524,5896,2,-1,?
2017-03-27 15:24:02.222000,693,6312,-235,5480,-476,8144,-621,7536,125,752,469,7776,-36,6232,235,6128,1453,6120,-160,640,547,3824,-134,5184,1263,4672,536,5896,2,-1,?
2017-03-27 15:24:02.231000,706,6312,-226,5480,-462,8144,-615,7536,119,752,468,7776,-32,6232,234,6128,1447,6120,-159,640,549,3824,-130,5184,1266,4672,552,5896,2,-1,?
2017-03-27 15:24:02.239000,698,6312,-217,5480,-457,8144,-613,7536,115,752,467,7776,-20,6232,239,6128,1444,6120,-155,640,552,3824,-134,5184,1275,4672,549,5896,2,-2,?
2017-03-27 15:24:02.249000,688,6312,-225,5480,-472,8144,-619,7536,118,752,478,7776,-9,6232,238,6128,1455,6120,-158,640,545,3824,-132,5184,1282,4672,544,5896,2,-2,?
2017-03-27 15:24:02.255000,696,6312,-230,5480,-484,8144,-618,7536,122,752,496,7776,8,6232,234,6128,1461,6120,-164,640,540,3824,-119,5184,1286,4672,547,5896,2,-2,?
2017-03-27 15:24:02.262000,694,6312,-222,5480,-481,8144,-612,7536,131,752,506,7776,19,6232,236,6128,1464,6120,-165,640,543,3824,-125,5184,1291,4672,540,5896,2,-2,?
2017-03-27 15:24:02.271000,683,6312,-219,5480,-476,8144,-611,7536,143,752,501,7776,16,6232,238,6128,1466,6120,-158,640,541,3824,-147,5184,1292,4672,527,5896,2,-2,?
2017-03-27 15:24:02.278000,689,6312,-221,5480,-482,8144,-616,7536,140,752,500,7776,0,6232,237,6128,1444,6120,-163,640,538,3824,-145,5184,1288,4672,526,5896,2,-2,?
2017-03-27 15:24:02.286000,687,6312,-221,5480,-486,8144,-618,7536,140,752,503,7776,-15,6232,242,6128,1436,6120,-173,640,535,3824,-138,5184,1276,4672,531,5896,2,-2,?
2017-03-27 15:24:02.293000,675,6312,-218,5480,-480,8144,-607,7536,151,752,502,7776,-8,6232,248,6128,1459,6120,-166,640,538,3824,-142,5184,1271,4672,535,5896,2,-2,?
2017-03-27 15:24:02.303000,679,6312,-216,5480,-478,8144,-600,7536,151,752,499,7776,-3,6232,243,6128,1472,6120,-152,640,546,3824,-137,5184,1276,4672,536,5896,2,-2,?
2017-03-27 15:24:02.309000,688,6312,-214,5480,-480,8144,-605,7536,142,752,502,7776,-18,6232,237,6128,1464,6120,-149,640,546,3824,-126,5184,1281,4672,529,5896,2,-2,?
2017-03-27 15:24:02.316000,691,6312,-208,5480,-479,8144,-604,7536,133,752,493,7776,-31,6232,238,6128,1453,6120,-153,640,543,3824,-130,5184,1290,4672,531,5896,2,-2,?
2017-03-27 15:24:02.324000,688,6312,-207,5480,-477,8144,-596,7536,128,752,476,7776,-31,6232,237,6128,1453,6120,-155,640,544,3824,-129,5184,1294,4672,535,5896,2,-2,?
2017-03-27 15:24:02.331000,680,6312,-219,5480,-491,8144,-606,7536,133,752,483,7776,-25,6232,229,6128,1458,6120,-161,640,539,3824,-122,5184,1285,4672,518,5896,2,-2,?
2017-03-27 15:24:02.341000,681,6312,-223,5480,-519,8144,-622,7536,143,752,505,7776,-18,6232,230,6128,1456,6120,-164,640,537,3824,-119,5184,1282,4672,508,5896,2,-2,?
2017-03-27 15:24:02.348000,688,6312,-211,5480,-521,8144,-614,7536,146,752,504,7776,-13,6232,239,6128,1458,6120,-156,640,540,3824,-109,5184,1293,4672,523,5896,2,-2,?
2017-03-27 15:24:02.357000,684,6312,-204,5480,-504,8144,-606,7536,142,752,495,7776,-17,6232,241,6128,1465,6120,-146,640,529,3824,-108,5184,1292,4672,519,5896,2,-2,?
2017-03-27 15:24:02.362000,682,6312,-202,5480,-495,8144,-614,7536,139,752,499,7776,-29,6232,233,6128,1460,6120,-150,640,519,3824,-123,5184,1284,4672,491,5896,2,-2,?
2017-03-27 15:24:02.370000,683,6312,-196,5480,-494,8144,-612,7536,139,752,505,7776,-37,6232,227,6128,1452,6120,-147,640,528,3824,-124,5184,1287,4672,492,5896,2,-2,?
2017-03-27 15:24:02.378000,675,6312,-198,5480,-489,8144,-607,7536,132,752,500,7776,-39,6232,231,6128,1459,6120,-133,640,539,3824,-111,5184,1292,4672,517,5896,2,-2,?
2017-03-27 15:24:02.387000,665,6312,-201,5480,-489,8144,-608,7536,130,752,493,7776,-45,6232,241,6128,1467,6120,-131,640,541,3824,-96,5184,1289,4672,514,5896,2,-2,?
2017-03-27 15:24:02.396000,669,6312,-199,5480,-495,8144,-599,7536,146,752,501,7776,-41,6232,247,6128,1464,6120,-134,640,542,3824,-88,5184,1287,4672,505,5896,2,-2,?
2017-03-27 15:24:02.404000,684,6312,-193,5480,-495,8144,-586,7536,159,752,508,7776,-26,6232,241,6128,1459,6120,-128,640,529,3824,-94,5184,1287,4672,524,5896,2,-2,?
2017-03-27 15:24:02.410000,694,6312,-183,5480,-481,8144,-586,7536,148,752,491,7776,-25,6232,232,6128,1459,6120,-124,640,510,3824,-104,5184,1284,4672,545,5896,2,-2,?
2017-03-27 15:24:02.419000,693,6312,-180,5480,-476,8144,-592,7536,134,752,472,7776,-31,6232,234,6128,1456,6120,-151,640,512,3824,-116,5184,1283,4672,541,5896,2,-2,?
2017-03-27 15:24:02.427000,686,6312,-187,5480,-486,8144,-599,7536,140,752,483,7776,-23,6232,238,6128,1443,6120,-181,640,511,3824,-128,5184,1271,4672,523,5896,2,-2,?
2017-03-27 15:24:02.434000,679,6312,-198,5480,-491,8144,-602,7536,152,752,501,7776,-22,6232,233,6128,1440,6120,-156,640,505,3824,-125,5184,1260,4672,516,5896,2,-2,?
2017-03-27 15:24:02.442000,681,6312,-203,5480,-494,8144,-601,7536,152,752,504,7776,-44,6232,232,6128,1454,6120,-97,640,527,3824,-110,5184,1275,4672,533,5896,2,-2,?
2017-03-27 15:24:02.450000,692,6312,-199,5480,-499,8144,-604,7536,143,752,505,7776,-63,6232,237,6128,1462,6120,-54,640,553,3824,-98,5184,1286,4672,553,5896,2,-2,?
2017-03-27 15:24:02.457000,701,6312,-190,5480,-502,8144,-606,7536,139,752,498,7776,-58,6232,242,6128,1470,6120,-22,640,563,3824,-88,5184,1285,4672,562,5896,2,-2,?
2017-03-27 15:24:02.465000,709,6312,-181,5480,-498,8144,-604,7536,137,752,481,7776,-27,6232,245,6128,1496,6120,30,640,573,3824,-68,5184,1303,4672,576,5896,2,-2,?
2017-03-27 15:24:02.476000,723,6312,-173,5480,-487,8144,-601,7536,139,752,471,7776,10,6232,242,6128,1517,6120,77,640,583,3824,-42,5184,1328,4672,609,5896,2,-2,?
2017-03-27 15:24:02.481000,733,6312,-171,5480,-488,8144,-598,7536,143,752,475,7776,28,6232,239,6128,1503,6120,97,640,593,3824,-21,5184,1336,4672,632,5896,2,-2,?
2017-03-27 15:24:02.491000,721,6312,-181,5480,-508,8144,-600,7536,142,752,487,7776,12,6232,238,6128,1486,6120,82,640,590,3824,-24,5184,1317,4672,615,5896,2,-2,?
2017-03-27 15:24:02.496000,697,6312,-192,5480,-521,8144,-612,7536,143,752,500,7776,-28,6232,232,6128,1477,6120,46,640,575,3824,-49,5184,1290,4672,592,5896,2,-2,?
2017-03-27 15:24:02.504000,698,6312,-188,5480,-515,8144,-616,7536,152,752,509,7776,-41,6232,232,6128,1474,6120,37,640,570,3824,-64,5184,1289,4672,593,5896,2,-1,?
2017-03-27 15:24:02.511000,709,6312,-175,5480,-500,8144,-602,7536,158,752,509,7776,-19,6232,245,6128,1493,6120,50,640,577,3824,-53,5184,1296,4672,590,5896,2,-2,?
2017-03-27 15:24:02.520000,705,6312,-174,5480,-504,8144,-605,7536,148,752,495,7776,-8,6232,245,6128,1498,6120,42,640,578,3824,-52,5184,1289,4672,562,5896,2,-1,?
2017-03-27 15:24:02.527000,702,6312,-179,5480,-512,8144,-618,7536,129,752,472,7776,-7,6232,235,6128,1486,6120,25,640,574,3824,-61,5184,1291,4672,547,5896,2,-1,?
2017-03-27 15:24:02.535000,717,6312,-168,5480,-498,8144,-612,7536,122,752,460,7776,14,6232,241,6128,1510,6120,38,640,583,3824,-42,5184,1316,4672,572,5896,2,-1,?
2017-03-27 15:24:02.545000,726,6312,-164,5480,-490,8144,-611,7536,127,752,460,7776,10,6232,245,6128,1533,6120,47,640,585,3824,-24,5184,1321,4672,590,5896,2,-1,?
2017-03-27 15:24:02.550000,713,6312,-185,5480,-515,8144,-625,7536,133,752,473,7776,-23,6232,234,6128,1508,6120,20,640,565,3824,-46,5184,1294,4672,574,5896,2,-1,?
2017-03-27 15:24:02.560000,701,6328,-204,5480,-534,8144,-628,7536,139,752,495,7776,-24,6232,234,6128,1486,6120,2,640,552,3824,-65,5184,1283,4672,569,5896,2,-1,?
2017-03-27 15:24:02.567000,697,6328,-205,5480,-531,8144,-624,7536,149,752,513,7776,6,6232,240,6128,1493,6120,3,640,545,3824,-65,5184,1289,4672,575,5896,2,-1,?
2017-03-27 15:24:02.574000,695,6328,-202,5480,-533,8144,-632,7536,155,752,518,7776,22,6232,241,6128,1498,6120,-12,640,540,3824,-68,5184,1282,4672,574,5904,2,-1,?
2017-03-27 15:24:02.581000,696,6328,-197,5480,-535,8136,-637,7536,152,752,513,7776,25,6232,239,6128,1497,6120,-27,640,548,3824,-70,5184,1272,4672,575,5904,2,-1,?
2017-03-27 15:24:02.589000,695,6328,-202,5480,-539,8136,-637,7520,141,752,504,7776,18,6232,234,6128,1495,6120,-29,640,547,3824,-71,5184,1270,4672,568,5904,2,-1,?
2017-03-27 15:24:02.598000,695,6328,-208,5480,-547,8136,-642,7520,131,744,497,7776,-3,6232,237,6128,1485,6120,-46,640,542,3824,-80,5184,1278,4672,559,5904,2,-1,?
2017-03-27 15:24:02.606000,699,6328,-196,5480,-539,8136,-637,7520,135,744,486,7792,-25,6232,243,6128,1478,6120,-43,640,560,3824,-72,5184,1290,4672,570,5904,2,-1,?
2017-03-27 15:24:02.613000,700,6328,-190,5480,-531,8136,-634,7520,139,744,468,7792,-37,6208,235,6128,1486,6120,1,640,578,3824,-54,5184,1292,4672,589,5904,2,-1,?
2017-03-27 15:24:02.621000,692,6328,-202,5480,-543,8136,-643,7520,135,744,474,7792,-49,6208,230,6128,1496,6120,31,640,577,3824,-62,5184,1289,4672,588,5904,2,-1,?
2017-03-27 15:24:02.629000,688,6328,-207,5480,-555,8136,-643,7520,138,744,498,7792,-47,6208,238,6128,1497,6128,43,640,581,3824,-66,5184,1297,4672,584,5904,2,-1,?
2017-03-27 15:24:02.637000,695,6328,-201,5480,-550,8136,-636,7520,136,744,502,7792,-16,6208,244,6128,1504,6128,81,656,603,3824,-38,5184,1305,4672,600,5904,2,-1,?
2017-03-27 15:24:02.645000,705,6328,-202,5480,-548,8136,-641,7520,132,744,496,7792,10,6208,247,6128,1524,6128,118,656,616,3808,-22,5184,1308,4672,617,5904,2,-1,?
2017-03-27 15:24:02.652000,706,6328,-205,5480,-553,8136,-644,7520,138,744,504,7792,8,6208,251,6128,1527,6128,121,656,618,3808,-25,5184,1314,4672,613,5904,2,-1,?
2017-03-27 15:24:02.661000,709,6328,-196,5480,-544,8136,-639,7520,138,744,505,7792,1,6208,247,6128,1520,6128,119,656,623,3808,-10,5184,1319,4680,611,5904,2,-1,?
2017-03-27 15:24:02.667000,713,6328,-197,5480,-538,8136,-639,7520,131,744,488,7792,-6,6208,240,6128,1523,6128,118,640,622,3808,-8,5184,1306,4680,619,5904,2,-1,?
2017-03-27 15:24:02.676000,703,6328,-207,5480,-552,8136,-642,7520,138,744,486,7792,-20,6208,235,6128,1517,6128,102,640,610,3824,-30,5184,1296,4680,599,5904,2,-1,?
2017-03-27 15:24:02.684000,694,6328,-202,5480,-561,8136,-643,7520,147,744,500,7792,-23,6208,237,6128,1501,6128,93,640,601,3824,-42,5184,1301,4680,566,5904,2,-1,?
2017-03-27 15:24:02.693000,693,6328,-195,5480,-556,8136,-645,7520,146,744,505,7792,-14,6208,247,6128,1501,6128,88,640,593,3824,-51,5184,1294,4680,563,5904,2,-1,?
2017-03-27 15:24:02.700000,700,6328,-204,5480,-558,8136,-645,7520,142,744,504,7792,-11,6208,251,6128,1508,6128,73,640,589,3824,-53,5184,1287,4680,581,5904,2,-1,?
2017-03-27 15:24:02.711000,703,6328,-215,5480,-567,8136,-645,7520,144,744,509,7792,-15,6208,244,6128,1507,6128,73,640,592,3824,-41,5184,1292,4680,584,5904,2,-1,?
2017-03-27 15:24:02.716000,688,6328,-213,5480,-569,8136,-649,7520,138,744,506,7792,-17,6208,239,6128,1507,6128,79,640,593,3824,-43,5184,1293,4680,574,5904,2,-1,?
2017-03-27 15:24:02.725000,676,6328,-205,5480,-563,8136,-648,7520,128,744,502,7792,-10,6208,247,6128,1509,6128,70,640,589,3824,-50,5184,1292,4680,565,5904,2,-1,?
2017-03-27 15:24:02.731000,691,6328,-200,5480,-552,8136,-642,7520,133,744,518,7792,16,6208,253,6128,1521,6128,67,640,588,3824,-34,5184,1299,4680,565,5904,2,-1,?
2017-03-27 15:24:02.741000,701,6328,-208,5480,-564,8136,-651,7520,139,744,523,7792,21,6208,248,6128,1523,6128,68,640,589,3824,-24,5184,1300,4680,566,5904,2,-1,?
2017-03-27 15:24:02.748000,686,6328,-225,5480,-587,8136,-658,7520,129,744,505,7792,-8,6208,237,6128,1505,6128,59,640,581,3824,-39,5184,1291,4680,550,5904,2,-1,?
2017-03-27 15:24:02.754000,685,6328,-222,5480,-586,8136,-646,7520,128,744,503,7792,-19,6208,238,6128,1491,6128,53,640,577,3824,-50,5184,1288,4680,544,5904,2,-1,?
2017-03-27 15:24:02.763000,695,6328,-216,5480,-577,8136,-637,7520,139,744,515,7792,-12,6208,244,6128,1493,6128,39,640,578,3824,-51,5184,1284,4680,546,5904,2,-1,?
2017-03-27 15:24:02.770000,681,6328,-223,5480,-583,8136,-646,7520,144,744,511,7792,-25,6208,243,6128,1493,6128,22,640,563,3824,-55,5184,1272,4680,530,5904,2,-1,?
2017-03-27 15:24:02.779000,666,6328,-223,5480,-589,8136,-654,7520,134,744,502,7792,-46,6208,237,6128,1482,6128,20,640,550,3824,-59,5184,1273,4680,513,5904,2,-1,?
2017-03-27 15:24:02.786000,675,6328,-215,5480,-582,8136,-652,7520,130,744,503,7792,-48,6208,236,6128,1476,6128,13,640,551,3824,-72,5184,1284,4680,514,5904,2,-1,?
2017-03-27 15:24:02.794000,685,6328,-221,5480,-576,8136,-647,7520,139,744,503,7792,-52,6208,240,6128,1472,6128,-3,640,554,3824,-89,5184,1283,4680,517,5904,2,-1,?
2017-03-27 15:24:02.802000,681,6328,-230,5480,-584,8136,-646,7520,131,744,495,7792,-67,6208,238,6128,1466,6128,-10,640,553,3824,-92,5184,1277,4680,511,5904,2,-1,?
2017-03-27 15:24:02.809000,678,6328,-225,5480,-583,8136,-647,7520,115,744,485,7792,-73,6208,234,6128,1464,6128,-9,640,546,3824,-83,5184,1276,4680,506,5904,2,-1,?
2017-03-27 15:24:02.816000,689,6328,-213,5480,-562,8136,-650,7520,121,744,480,7792,-69,6208,236,6128,1464,6128,-11,640,547,3824,-77,5184,1283,4680,515,5904,2,-1,?
2017-03-27 15:24:02.824000,696,6328,-215,5480,-556,8136,-651,7520,126,744,479,7792,-67,6208,240,6128,1459,6128,-13,640,552,3824,-83,5184,1294,4680,527,5904,2,-1,?
2017-03-27 15:24:02.833000,690,6328,-222,5480,-561,8136,-647,7520,122,744,480,7792,-66,6208,240,6128,1453,6128,-10,640,545,3824,-89,5184,1289,4680,510,5904,2,-1,?
2017-03-27 15:24:02.840000,684,6328,-217,5480,-561,8136,-642,7520,128,744,481,7792,-60,6208,237,6128,1459,6128,-6,640,546,3824,-83,5184,1283,4680,485,5904,2,-1,?
2017-03-27 15:24:02.850000,687,6328,-214,5480,-566,8136,-645,7520,134,744,479,7792,-54,6208,235,6128,1472,6128,-10,640,551,3824,-81,5184,1288,4680,484,5904,2,-1,?
2017-03-27 15:24:02.856000,688,6328,-218,5480,-564,8136,-648,7520,128,744,477,7792,-52,6208,236,6128,1469,6128,-22,640,554,3824,-82,5184,1295,4680,498,5904,2,-1,?
2017-03-27 15:24:02.864000,691,6328,-213,5480,-550,8136,-641,7520,121,744,477,7792,-55,6208,243,6128,1459,6128,-18,640,558,3824,-73,5184,1295,4680,511,5904,2,-1,?
2017-03-27 15:24:02.872000,697,6328,-211,5480,-550,8136,-640,7520,118,744,474,7792,-55,6208,247,6128,1463,6128,3,640,561,3824,-71,5184,1286,4680,520,5904,2,-1,?
2017-03-27 15:24:02.881000,697,6328,-215,5480,-568,8136,-649,7520,119,744,475,7792,-49,6208,241,6128,1467,6128,6,640,558,3824,-78,5184,1289,4680,523,5904,2,-1,?
2017-03-27 15:24:02.887000,693,6328,-211,5480,-569,8136,-645,7520,122,744,478,7792,-43,6208,239,6128,1464,6128,-8,640,557,3824,-76,5184,1296,4680,520,5904,2,-1,?
2017-03-27 15:24:02.895000,699,6328,-205,5480,-558,8136,-640,7520,118,744,485,7792,-42,6208,248,6128,1470,6128,1,640,568,3824,-60,5184,1301,4680,526,5904,2,-1,?
2017-03-27 15:24:02.904000,710,6328,-205,5480,-550,8136,-643,7520,120,744,493,7792,-38,6208,250,6128,1484,6128,25,640,578,3824,-48,5184,1313,4680,542,5904,2,-1,?
2017-03-27 15:24:02.911000,713,6328,-200,5480,-546,8136,-645,7520,134,744,501,7792,-29,6208,245,6128,1490,6128,33,640,578,3824,-51,5184,1319,4680,549,5904,2,-1,?
2017-03-27 15:24:02.920000,711,6328,-190,5480,-542,8136,-640,7520,136,744,496,7792,-26,6208,241,6128,1488,6128,31,640,585,3824,-53,5184,1322,4680,551,5904,2,-1,?
2017-03-27 15:24:02.927000,711,6328,-188,5480,-542,8136,-639,7520,121,744,482,7792,-29,6208,240,6128,1487,6128,24,640,586,3824,-47,5184,1323,4680,552,5904,2,-1,?
2017-03-27 15:24:02.934000,708,6328,-200,5480,-569,8136,-645,7520,116,744,482,7792,-36,6208,241,6128,1479,6128,1,640,571,3824,-38,5184,1305,4680,543,5904,2,-1,?
2017-03-27 15:24:02.943000,706,6328,-206,5480,-585,8136,-653,7520,117,744,486,7792,-44,6208,240,6128,1465,6128,-14,640,564,3824,-21,5184,1279,4680,537,5904,2,-1,?
2017-03-27 15:24:02.950000,703,6328,-203,5480,-562,8136,-654,7520,115,744,477,7792,-44,6208,236,6128,1470,6128,-1,640,573,3824,5,5184,1269,4680,541,5904,2,-1,?
2017-03-27 15:24:02.958000,698,6328,-203,5480,-563,8136,-650,7520,112,744,469,7792,-41,6208,238,6128,1486,6128,13,640,578,3824,18,5184,1276,4680,536,5904,2,-1,?
2017-03-27 15:24:02.967000,698,6328,-211,5480,-595,8136,-651,7520,112,744,477,7792,-35,6208,242,6128,1485,6128,19,640,573,3824,17,5184,1281,4680,520,5904,2,-1,?
2017-03-27 15:24:02.973000,700,6328,-216,5480,-608,8136,-658,7520,112,744,478,7792,-34,6208,241,6128,1478,6128,20,640,567,3824,22,5184,1285,4680,516,5904,2,-1,?
2017-03-27 15:24:02.980000,698,6328,-218,5480,-609,8136,-660,7520,116,744,473,7792,-36,6208,243,6128,1477,6128,9,640,557,3824,23,5184,1290,4680,501,5904,2,-1,?
2017-03-27 15:24:02.989000,692,6328,-220,5480,-612,8136,-652,7520,121,744,475,7792,-30,6208,245,6128,1481,6128,3,640,547,3824,21,5184,1288,4680,466,5904,2,-1,?
2017-03-27 15:24:02.997000,691,6328,-215,5480,-608,8136,-647,7520,118,744,475,7792,-22,6208,242,6128,1486,6128,14,640,542,3824,23,5184,1288,4680,459,5904,2,-1,?
2017-03-27 15:24:03.004000,696,6328,-216,5480,-612,8136,-655,7520,113,744,473,7792,-30,6208,244,6128,1483,6128,16,640,529,3824,23,5184,1294,4680,477,5904,2,-1,?
2017-03-27 15:24:03.011000,698,6328,-219,5480,-614,8136,-659,7520,109,744,470,7792,-37,6208,251,6128,1481,6128,8,640,519,3824,21,5184,1297,4680,488,5904,2,-1,?
2017-03-27 15:24:03.019000,697,6328,-212,5480,-601,8136,-650,7520,110,744,474,7792,-30,6208,250,6128,1494,6128,7,640,535,3824,24,5184,1295,4680,493,5904,2,-1,?
2017-03-27 15:24:03.028000,690,6328,-211,5480,-594,8136,-640,7520,117,744,475,7792,-24,6208,243,6128,1501,6128,6,640,539,3824,25,5184,1288,4680,494,5904,2,-1,?
2017-03-27 15:24:03.036000,679,6328,-220,5480,-604,8136,-644,7520,116,744,470,7792,-31,6208,241,6128,1481,6128,-11,640,524,3824,12,5184,1275,4680,485,5904,2,-1,?
2017-03-27 15:24:03.043000,672,6328,-225,5480,-628,8136,-658,7520,112,744,472,7792,-36,6208,246,6128,1461,6128,-40,640,520,3824,-10,5184,1270,4680,471,5904,2,-1,?
2017-03-27 15:24:03.052000,668,6328,-217,5480,-640,8136,-665,7520,121,744,494,7792,-11,6208,253,6128,1472,6128,-47,640,522,3824,-19,5184,1274,4680,465,5904,2,-1,?
2017-03-27 15:24:03.059000,672,6328,-214,5480,-623,8136,-664,7520,129,744,507,7792,17,6208,255,6128,1487,6128,-32,640,526,3824,-11,5184,1279,4680,475,5904,2,-1,?
2017-03-27 15:24:03.068000,673,6328,-220,5480,-616,8136,-658,7520,120,744,491,7792,12,6208,246,6128,1478,6128,-30,640,527,3824,-5,5184,1280,4680,481,5904,2,-1,?
2017-03-27 15:24:03.074000,664,6328,-220,5496,-623,8136,-655,7520,111,744,483,7792,-3,6208,240,6128,1466,6128,-37,640,525,3824,-6,5184,1277,4680,471,5904,2,-1,?
2017-03-27 15:24:03.083000,665,6328,-215,5496,-619,8136,-663,7520,110,744,495,7792,-7,6208,247,6128,1471,6128,-28,640,533,3824,-12,5184,1271,4680,467,5912,2,-1,?
2017-03-27 15:24:03.094000,673,6328,-215,5496,-614,8144,-665,7520,110,744,494,7792,-16,6208,249,6128,1474,6128,-19,640,535,3824,-19,5184,1267,4680,480,5912,2,-1,?
2017-03-27 15:24:03.099000,668,6328,-214,5496,-621,8144,-654,7520,110,744,480,7792,-31,6208,246,6128,1477,6128,-19,640,527,3824,-16,5184,1272,4680,492,5912,1,-1,?
2017-03-27 15:24:03.106000,663,6328,-207,5496,-622,8144,-657,7520,115,752,478,7792,-31,6208,245,6128,1489,6128,-13,640,526,3824,-2,5184,1278,4680,493,5912,1,-1,?
2017-03-27 15:24:03.114000,668,6328,-208,5496,-621,8144,-666,7520,110,752,478,7792,-23,6208,244,6128,1485,6128,-8,640,533,3824,2,5184,1278,4680,485,5912,1,-1,?
2017-03-27 15:24:03.123000,670,6328,-209,5496,-628,8144,-657,7520,102,752,472,7792,-22,6208,241,6128,1479,6128,-9,640,536,3824,-4,5184,1281,4680,482,5912,1,-1,?
2017-03-27 15:24:03.130000,670,6328,-203,5496,-631,8144,-648,7520,101,752,467,7792,-25,6208,247,6136,1490,6128,-4,640,538,3824,0,5184,1286,4680,489,5912,1,-2,?
2017-03-27 15:24:03.139000,683,6328,-205,5496,-633,8144,-649,7520,105,752,471,7792,-17,6208,254,6136,1497,6136,4,640,548,3824,11,5184,1299,4680,481,5912,1,-1,?
2017-03-27 15:24:03.144000,691,6328,-206,5496,-626,8144,-645,7520,112,752,478,7792,-9,6208,246,6136,1493,6136,10,656,552,3824,21,5184,1315,4680,462,5912,1,-1,?
2017-03-27 15:24:03.154000,682,6328,-199,5496,-614,8144,-647,7520,114,752,476,7792,-16,6208,238,6136,1488,6136,11,656,550,3808,20,5184,1318,4680,463,5912,1,-1,?
2017-03-27 15:24:03.161000,673,6328,-203,5496,-619,8144,-654,7520,109,752,472,7792,-17,6208,243,6136,1475,6136,4,656,550,3808,9,5184,1307,4680,472,5912,1,-1,?
2017-03-27 15:24:03.169000,674,6328,-210,5496,-625,8144,-647,7520,110,752,481,7792,-8,6208,245,6136,1464,6136,-4,656,544,3808,-2,5184,1298,4680,463,5912,1,-1,?
2017-03-27 15:24:03.177000,674,6328,-208,5496,-620,8144,-642,7520,118,752,495,7792,-10,6208,241,6136,1467,6136,-14,664,534,3808,-10,5184,1298,4680,459,5912,1,-1,?
2017-03-27 15:24:03.184000,674,6328,-201,5496,-614,8144,-641,7520,123,752,505,7792,-5,6208,246,6136,1479,6136,-17,664,526,3816,-18,5184,1295,4680,469,5912,1,-1,?
2017-03-27 15:24:03.193000,678,6328,-201,5496,-610,8144,-635,7520,126,752,504,7792,8,6208,253,6136,1493,6136,-3,664,525,3816,-23,5184,1293,4680,478,5912,1,-1,?
2017-03-27 15:24:03.200000,674,6328,-204,5496,-612,8144,-636,7520,126,752,486,7792,1,6208,248,6136,1499,6136,6,664,529,3816,-14,5184,1298,4680,478,5912,1,-1,?
2017-03-27 15:24:03.208000,666,6328,-203,5496,-621,8144,-643,7520,129,752,483,7792,-9,6208,245,6136,1501,6136,-1,664,529,3816,-5,5184,1298,4680,469,5912,1,-1,?
2017-03-27 15:24:03.216000,669,6328,-207,5496,-623,8144,-642,7520,135,752,500,7792,0,6208,250,6136,1502,6136,-6,664,522,3816,-6,5184,1288,4680,466,5912,1,-1,?
2017-03-27 15:24:03.224000,676,6328,-207,5496,-615,8144,-643,7520,132,752,497,7792,8,6208,249,6136,1499,6136,-10,664,520,3816,-16,5184,1284,4680,473,5912,1,-1,?
2017-03-27 15:24:03.231000,668,6328,-201,5496,-615,8144,-644,7520,126,752,482,7792,5,6208,245,6136,1504,6136,-18,664,523,3816,-25,5184,1285,4680,472,5912,1,-1,?
2017-03-27 15:24:03.240000,665,6328,-200,5496,-622,8144,-643,7520,121,752,479,7792,2,6208,243,6136,1506,6136,-31,664,522,3816,-25,5184,1284,4680,469,5912,1,-1,?
2017-03-27 15:24:03.246000,671,6328,-197,5496,-621,8144,-652,7520,115,752,478,7792,-7,6208,244,6136,1492,6136,-37,664,517,3816,-17,5184,1279,4680,476,5912,2,-1,?
2017-03-27 15:24:03.255000,669,6328,-191,5496,-609,8144,-653,7520,118,752,470,7792,-11,6208,246,6136,1490,6136,-30,664,524,3816,-7,5184,1277,4680,493,5912,2,-1,?
2017-03-27 15:24:03.264000,671,6328,-194,5496,-611,8144,-654,7520,126,752,477,7792,-10,6208,247,6136,1495,6136,-30,664,531,3816,-15,5184,1277,4680,501,5912,2,-1,?
2017-03-27 15:24:03.272000,670,6328,-200,5496,-632,8144,-663,7520,127,752,488,7792,-15,6208,245,6136,1487,6136,-39,664,521,3816,-25,5184,1277,4680,497,5912,2,-1,?
2017-03-27 15:24:03.278000,668,6328,-195,5496,-633,8144,-660,7520,118,752,480,7792,-7,6208,248,6136,1485,6136,-36,664,524,3816,-17,5184,1278,4680,506,5912,2,-1,?
2017-03-27 15:24:03.286000,672,6328,-189,5496,-613,8144,-657,7520,116,752,474,7792,12,6208,250,6136,1495,6136,-25,664,535,3816,-6,5184,1279,4680,516,5912,2,-1,?
2017-03-27 15:24:03.294000,676,6328,-184,5496,-606,8144,-663,7520,127,752,483,7792,8,6208,245,6136,1510,6136,-20,664,541,3816,1,5184,1281,4680,498,5912,2,-1,?
2017-03-27 15:24:03.302000,676,6328,-180,5496,-609,8144,-657,7520,130,752,485,7792,-7,6208,252,6136,1517,6136,-17,664,549,3816,16,5184,1293,4680,487,5912,2,-1,?
2017-03-27 15:24:03.310000,669,6328,-189,5496,-613,8144,-649,7520,123,752,473,7792,-3,6208,256,6136,1512,6136,-23,664,543,3816,15,5184,1293,4680,492,5912,2,-1,?
2017-03-27 15:24:03.316000,659,6328,-190,5496,-621,8144,-654,7520,117,752,475,7792,-1,6208,248,6136,1500,6136,-34,664,534,3816,1,5184,1291,4680,497,5912,2,-1,?
2017-03-27 15:24:03.326000,663,6328,-183,5496,-624,8144,-653,7520,116,752,479,7792,-10,6208,244,6136,1493,6136,-28,664,541,3816,13,5184,1293,4680,508,5912,2,-1,?
2017-03-27 15:24:03.333000,672,6328,-185,5496,-626,8144,-651,7520,118,752,472,7792,-11,6208,245,6136,1496,6136,-19,664,547,3816,20,5184,1270,4680,515,5912,2,-1,?
2017-03-27 15:24:03.342000,668,6328,-194,5496,-644,8144,-662,7520,119,752,472,7792,-8,6208,245,6136,1501,6136,-27,664,539,3816,9,5184,1243,4680,506,5912,2,-1,?
2017-03-27 15:24:03.348000,664,6328,-197,5496,-648,8144,-663,7520,113,752,472,7792,-15,6208,241,6136,1498,6136,-40,664,525,3816,8,5184,1248,4680,502,5912,2,-1,?
2017-03-27 15:24:03.356000,672,6328,-186,5496,-626,8144,-654,7520,111,752,467,7792,-18,6208,243,6136,1487,6136,-48,664,526,3816,4,5184,1260,4680,513,5912,2,-1,?
2017-03-27 15:24:03.364000,674,6328,-179,5496,-608,8144,-646,7520,118,752,470,7792,-9,6208,248,6136,1493,6136,-52,664,535,3816,2,5184,1258,4680,517,5912,2,-2,?
2017-03-27 15:24:03.372000,671,6328,-187,5496,-607,8144,-641,7520,124,752,472,7792,-4,6208,249,6136,1502,6136,-53,664,535,3816,16,5184,1258,4680,515,5912,2,-1,?
2017-03-27 15:24:03.382000,673,6328,-184,5496,-613,8144,-647,7520,120,752,472,7792,-17,6208,243,6136,1486,6136,-58,664,530,3816,9,5184,1261,4680,518,5912,2,-2,?
2017-03-27 15:24:03.387000,675,6328,-167,5496,-609,8144,-652,7520,121,752,476,7792,-24,6208,247,6136,1476,6136,-65,664,529,3816,-11,5184,1264,4680,518,5912,2,-2,?
2017-03-27 15:24:03.397000,669,6328,-170,5496,-604,8144,-645,7520,119,752,473,7792,-14,6208,252,6136,1486,6136,-67,664,538,3816,11,5184,1273,4680,519,5912,2,-2,?
2017-03-27 15:24:03.404000,660,6328,-183,5496,-609,8144,-641,7520,113,752,465,7792,-13,6208,247,6136,1495,6136,-68,664,540,3816,21,5184,1269,4680,520,5912,2,-1,?
2017-03-27 15:24:03.410000,655,6328,-175,5496,-609,8144,-645,7520,108,752,472,7792,-21,6208,251,6136,1494,6136,-64,664,532,3816,6,5184,1261,4680,513,5912,2,-1,?
2017-03-27 15:24:03.419000,661,6328,-169,5496,-604,8144,-647,7520,106,752,466,7792,-21,6208,252,6136,1489,6136,-59,664,524,3816,12,5184,1267,4680,506,5912,2,-1,?
2017-03-27 15:24:03.426000,671,6328,-183,5496,-607,8144,-645,7520,107,752,445,7792,-18,6208,247,6136,1486,6136,-63,664,519,3816,17,5184,1268,4680,507,5912,2,-1,?
2017-03-27 15:24:03.435000,669,6328,-190,5496,-618,8144,-646,7520,111,752,454,7792,-21,6208,248,6136,1487,6136,-68,664,523,3816,10,5184,1265,4680,506,5912,2,-1,?
2017-03-27 15:24:03.442000,669,6328,-181,5496,-619,8144,-644,7520,121,752,479,7792,-26,6208,252,6136,1481,6136,-65,664,515,3816,11,5184,1274,4680,483,5912,2,-1,?
2017-03-27 15:24:03.449000,678,6328,-180,5496,-614,8144,-642,7520,126,752,478,7792,-18,6208,249,6136,1473,6136,-64,664,475,3816,12,5184,1269,4680,459,5912,2,-1,?
2017-03-27 15:24:03.457000,681,6328,-186,5496,-616,8144,-644,7520,115,752,469,7792,-14,6208,248,6136,1476,6136,-77,664,453,3816,8,5184,1251,4680,462,5912,2,-1,?
2017-03-27 15:24:03.465000,673,6328,-187,5496,-616,8144,-645,7520,110,752,472,7792,-20,6208,249,6136,1480,6136,-81,664,462,3816,13,5184,1252,4680,479,5912,2,-1,?
2017-03-27 15:24:03.473000,670,6328,-190,5496,-617,8144,-645,7520,116,752,487,7792,-16,6208,248,6136,1473,6136,-76,664,461,3816,12,5184,1257,4680,481,5912,2,-1,?
2017-03-27 15:24:03.482000,664,6328,-196,5496,-621,8144,-648,7520,117,752,500,7792,-6,6208,248,6136,1469,6136,-90,664,451,3816,-6,5184,1260,4680,476,5912,2,-1,?
2017-03-27 15:24:03.490000,657,6328,-191,5496,-617,8144,-647,7520,117,752,489,7792,-3,6208,252,6136,1480,6136,-96,664,456,3816,-4,5184,1290,4680,479,5912,2,-1,?
2017-03-27 15:24:03.497000,673,6328,-181,5496,-609,8144,-640,7520,126,752,470,7792,3,6208,254,6136,1489,6136,-73,664,474,3816,17,5184,1340,4680,491,5912,2,-1,?
2017-03-27 15:24:03.506000,691,6328,-175,5496,-611,8144,-640,7520,127,752,474,7792,13,6208,251,6136,1497,6136,-55,664,483,3816,29,5184,1357,4680,499,5912,2,-1,?
2017-03-27 15:24:03.513000,677,6328,-173,5496,-604,8144,-639,7520,116,752,473,7792,12,6208,247,6136,1516,6136,-50,664,481,3816,24,5184,1326,4680,501,5912,2,-1,?
2017-03-27 15:24:03.521000,668,6328,-172,5496,-596,8144,-635,7520,114,752,459,7792,17,6208,252,6136,1523,6136,-41,664,493,3816,35,5184,1326,4680,504,5912,2,-1,?
2017-03-27 15:24:03.529000,671,6328,-171,5496,-613,8144,-639,7520,126,752,464,7792,25,6208,258,6136,1512,6136,-45,664,507,3816,54,5184,1387,4680,499,5912,2,-1,?
2017-03-27 15:24:03.536000,664,6328,-170,5496,-610,8144,-644,7520,128,752,466,7792,5,6208,255,6136,1503,6136,-56,664,509,3816,43,5184,1344,4680,502,5912,2,-1,?
2017-03-27 15:24:03.544000,662,6328,-165,5496,-569,8144,-635,7520,115,752,452,7792,-18,6208,246,6136,1495,6136,-67,664,507,3816,20,5184,1323,4680,515,5912,2,-1,?
2017-03-27 15:24:03.553000,660,6328,-164,5496,-550,8144,-627,7520,111,752,444,7792,-24,6208,245,6136,1477,6136,-100,664,507,3816,10,5184,1629,4680,514,5912,2,-1,?
2017-03-27 15:24:03.561000,647,6328,-168,5496,-552,8144,-637,7520,113,752,444,7792,-35,6208,249,6136,1461,6136,-149,664,504,3816,0,5184,1969,4680,506,5912,2,-1,?
2017-03-27 15:24:03.568000,654,6320,-155,5496,-524,8144,-638,7520,107,752,438,7792,-48,6208,245,6136,1460,6136,-171,664,499,3816,-11,5184,1839,4680,517,5912,2,-1,?
2017-03-27 15:24:03.575000,675,6320,-135,5488,-481,8144,-621,7520,107,752,438,7792,-44,6208,239,6136,1456,6136,-172,664,494,3816,-20,5184,1418,4680,541,5912,2,-1,?
2017-03-27 15:24:03.583000,677,6320,-131,5488,-464,8144,-611,7520,114,752,446,7792,-35,6208,244,6136,1439,6136,-193,664,474,3816,-38,5184,1186,4680,555,5904,2,-1,?
2017-03-27 15:24:03.591000,676,6320,-139,5488,-455,8152,-609,7520,117,752,447,7792,-36,6208,249,6136,1428,6136,-224,664,429,3816,-52,5184,1184,4680,549,5904,2,-1,?
2017-03-27 15:24:03.600000,678,6320,-136,5488,-435,8152,-607,7544,116,752,451,7792,-40,6208,245,6136,1426,6136,-250,664,373,3816,-62,5184,1224,4680,534,5904,2,-1,?
2017-03-27 15:24:03.607000,672,6320,-130,5488,-422,8152,-607,7544,118,736,456,7792,-47,6208,236,6136,1417,6136,-277,664,333,3816,-88,5184,1223,4680,521,5904,2,-1,?
2017-03-27 15:24:03.617000,669,6320,-129,5488,-429,8152,-610,7544,115,736,450,7792,-60,6208,238,6136,1397,6136,-312,664,314,3816,-104,5184,1218,4680,518,5904,2,-1,?
2017-03-27 15:24:03.622000,674,6320,-128,5488,-419,8152,-612,7544,104,736,440,7792,-70,6208,247,6136,1383,6136,-342,664,303,3816,-102,5184,1258,4680,522,5904,2,-1,?
2017-03-27 15:24:03.630000,670,6320,-125,5488,-392,8152,-607,7544,101,736,435,7792,-70,6208,245,6136,1382,6136,-363,664,301,3816,-120,5184,1268,4680,524,5904,2,-1,?
2017-03-27 15:24:03.637000,667,6320,-118,5488,-390,8152,-594,7544,106,736,435,7792,-69,6208,235,6136,1382,6136,-379,664,318,3816,-145,5184,1252,4680,526,5904,2,-1,?
2017-03-27 15:24:03.646000,672,6320,-122,5488,-394,8152,-586,7544,115,736,440,7792,-58,6208,241,6136,1386,6136,-382,640,341,3816,-134,5184,1255,4680,529,5904,2,-1,?
2017-03-27 15:24:03.654000,677,6320,-127,5488,-384,8152,-587,7544,122,736,445,7792,-49,6208,251,6136,1390,6136,-377,640,355,3816,-116,5184,1274,4680,534,5904,2,-1,?
2017-03-27 15:24:03.663000,681,6320,-120,5488,-384,8152,-583,7544,128,736,443,7792,-64,6208,248,6136,1385,6136,-374,640,364,3816,-120,5208,1286,4680,539,5904,2,-1,?
2017-03-27 15:24:03.668000,684,6320,-121,5488,-387,8152,-578,7544,132,736,446,7792,-73,6208,247,6136,1389,6136,-373,640,352,3816,-120,5208,1278,4688,533,5904,2,-1,?
2017-03-27 15:24:03.679000,684,6320,-139,5488,-385,8152,-581,7544,132,736,454,7792,-65,6208,248,6136,1387,6136,-389,656,319,3816,-123,5208,1273,4688,524,5904,2,-1,?
2017-03-27 15:24:03.686000,685,6320,-144,5488,-397,8152,-579,7544,133,736,452,7792,-74,6208,240,6136,1368,6136,-404,656,284,3808,-129,5208,1269,4688,519,5904,2,-1,?
2017-03-27 15:24:03.694000,690,6320,-128,5488,-403,8152,-588,7544,126,736,440,7792,-87,6208,242,6136,1367,6136,-388,656,256,3808,-122,5184,1272,4688,524,5904,2,-1,?
2017-03-27 15:24:03.701000,699,6320,-119,5488,-395,8152,-603,7544,105,736,437,7792,-75,6208,247,6136,1382,6136,-374,656,240,3808,-117,5184,1284,4688,526,5904,2,-1,?
2017-03-27 15:24:03.710000,690,6320,-137,5488,-411,8152,-605,7544,99,736,456,7792,-57,6208,243,6136,1380,6136,-388,656,226,3808,-133,5184,1271,4688,508,5904,2,-1,?
2017-03-27 15:24:03.716000,680,6320,-157,5488,-440,8152,-604,7544,116,736,473,7792,-53,6208,247,6136,1374,6136,-397,656,220,3808,-140,5184,1251,4688,494,5904,2,-1,?
2017-03-27 15:24:03.725000,681,6320,-146,5488,-436,8152,-608,7544,127,736,472,7792,-56,6208,252,6136,1381,6136,-393,656,220,3808,-132,5184,1258,4688,497,5904,2,-1,?
2017-03-27 15:24:03.731000,680,6320,-132,5488,-425,8152,-603,7544,118,736,467,7792,-66,6208,245,6136,1382,6136,-391,656,212,3808,-143,5184,1265,4688,505,5904,2,-1,?
2017-03-27 15:24:03.744000,679,6320,-133,5488,-435,8152,-601,7544,117,736,469,7792,-69,6208,242,6136,1375,6136,-386,656,191,3808,-150,5184,1262,4688,506,5904,2,-1,?
2017-03-27 15:24:03.749000,682,6320,-139,5488,-447,8152,-606,7544,133,736,475,7792,-56,6208,246,6136,1371,6136,-381,656,172,3808,-143,5184,1267,4688,479,5904,2,-1,?
2017-03-27 15:24:03.756000,683,6320,-143,5488,-445,8152,-597,7544,137,736,476,7792,-53,6208,245,6136,1363,6136,-384,656,188,3808,-140,5184,1273,4688,448,5904,2,-1,?
2017-03-27 15:24:03.763000,693,6320,-134,5488,-435,8152,-586,7544,125,736,460,7792,-70,6208,247,6136,1364,6136,-375,656,242,3808,-143,5184,1275,4688,464,5904,2,-1,?
2017-03-27 15:24:03.771000,703,6320,-129,5488,-431,8152,-594,7544,126,736,450,7792,-78,6208,246,6136,1370,6136,-363,656,268,3808,-145,5184,1270,4688,490,5904,2,-1,?
2017-03-27 15:24:03.780000,690,6320,-146,5488,-447,8152,-603,7544,139,736,464,7792,-77,6208,240,6136,1360,6136,-379,656,231,3808,-145,5184,1257,4688,478,5904,2,-1,?
2017-03-27 15:24:03.787000,680,6320,-153,5488,-460,8152,-604,7544,144,736,474,7792,-69,6208,248,6136,1355,6136,-393,656,171,3808,-133,5184,1255,4688,474,5904,2,-2,?
2017-03-27 15:24:03.795000,695,6320,-131,5488,-444,8152,-601,7544,140,736,473,7792,-47,6208,254,6136,1380,6136,-370,656,129,3808,-117,5184,1268,4688,502,5904,2,-1,?
2017-03-27 15:24:03.803000,709,6320,-125,5488,-426,8152,-598,7544,133,736,474,7792,-44,6208,249,6136,1395,6136,-355,656,95,3808,-134,5184,1271,4688,509,5904,2,-1,?
2017-03-27 15:24:03.810000,704,6320,-134,5488,-427,8152,-595,7544,127,736,467,7792,-68,6208,251,6136,1379,6136,-358,656,55,3808,-150,5184,1269,4688,498,5904,2,-2,?
2017-03-27 15:24:03.817000,698,6320,-132,5488,-432,8152,-599,7544,120,736,450,7792,-68,6208,256,6136,1375,6136,-345,656,26,3808,-126,5184,1282,4688,502,5904,2,-1,?
2017-03-27 15:24:03.827000,697,6320,-131,5488,-434,8152,-606,7544,117,736,445,7792,-53,6208,249,6136,1385,6136,-330,656,3,3808,-117,5184,1288,4688,502,5904,2,-2,?
2017-03-27 15:24:03.835000,690,6320,-137,5488,-433,8152,-605,7544,117,736,451,7792,-60,6208,246,6136,1385,6136,-346,656,-33,3808,-145,5184,1279,4688,495,5904,2,-2,?
2017-03-27 15:24:03.840000,686,6320,-137,5488,-437,8152,-597,7544,115,736,451,7792,-73,6208,250,6136,1370,6136,-365,656,-74,3808,-154,5184,1274,4688,498,5904,2,-2,?
2017-03-27 15:24:03.848000,694,6320,-131,5488,-441,8152,-596,7544,112,736,446,7792,-67,6208,252,6136,1374,6136,-343,656,-110,3808,-125,5184,1276,4688,508,5904,2,-2,?
2017-03-27 15:24:03.856000,702,6320,-130,5488,-444,8152,-604,7544,105,736,441,7792,-53,6208,253,6136,1389,6136,-339,656,-137,3808,-117,5184,1279,4688,511,5904,2,-2,?
2017-03-27 15:24:03.864000,696,6320,-136,5488,-457,8152,-612,7544,100,736,442,7792,-54,6208,251,6136,1388,6136,-376,656,-156,3808,-134,5184,1278,4688,503,5904,2,-2,?
2017-03-27 15:24:03.872000,680,6320,-139,5488,-462,8152,-607,7544,105,736,442,7792,-67,6208,247,6136,1388,6136,-358,656,-151,3808,-132,5184,1267,4688,492,5904,2,-2,?
2017-03-27 15:24:03.879000,674,6320,-135,5488,-456,8152,-593,7544,109,736,436,7792,-70,6208,251,6136,1406,6136,-277,656,-113,3808,-112,5184,1268,4688,494,5904,2,-2,?
2017-03-27 15:24:03.887000,679,6320,-132,5488,-463,8152,-585,7544,109,736,439,7792,-58,6208,259,6136,1433,6136,-225,656,-67,3808,-90,5184,1289,4688,503,5904,2,-2,?
2017-03-27 15:24:03.896000,687,6320,-138,5488,-481,8152,-586,7544,115,736,444,7792,-46,6208,259,6136,1451,6136,-214,656,-26,3808,-73,5184,1300,4688,490,5904,2,-2,?
2017-03-27 15:24:03.904000,690,6320,-142,5488,-489,8152,-588,7544,118,736,426,7792,-41,6208,255,6136,1457,6136,-210,656,0,3808,-73,5184,1292,4688,463,5904,2,-1,?
2017-03-27 15:24:03.914000,680,6320,-143,5488,-481,8152,-589,7544,110,736,413,7792,-45,6208,252,6136,1458,6136,-219,656,29,3808,-87,5184,1276,4688,451,5904,2,-1,?
2017-03-27 15:24:03.920000,673,6320,-141,5488,-479,8152,-588,7544,113,736,432,7792,-52,6208,250,6136,1460,6136,-214,656,83,3808,-93,5184,1265,4688,461,5904,2,-1,?
2017-03-27 15:24:03.927000,678,6320,-139,5488,-484,8152,-586,7544,128,736,451,7792,-52,6208,252,6136,1464,6136,-197,656,130,3808,-91,5184,1264,4688,469,5904,2,-1,?
2017-03-27 15:24:03.934000,679,6320,-142,5488,-486,8152,-586,7544,133,736,449,7792,-46,6208,251,6136,1460,6136,-204,656,160,3808,-93,5184,1273,4688,463,5904,2,-1,?
2017-03-27 15:24:03.944000,675,6320,-147,5488,-483,8152,-596,7544,123,736,439,7792,-41,6208,248,6136,1449,6136,-216,656,191,3808,-94,5184,1273,4688,456,5904,2,-1,?
2017-03-27 15:24:03.952000,674,6320,-146,5488,-475,8152,-599,7544,123,736,443,7792,-40,6208,251,6136,1450,6136,-208,656,213,3808,-91,5184,1267,4688,458,5904,2,-1,?
2017-03-27 15:24:03.959000,681,6320,-141,5488,-476,8152,-592,7544,139,736,464,7792,-41,6208,251,6136,1463,6136,-207,656,226,3808,-96,5184,1272,4688,475,5904,2,-1,?
2017-03-27 15:24:03.966000,681,6320,-145,5488,-479,8152,-591,7544,152,736,480,7792,-45,6208,248,6136,1467,6136,-224,656,236,3808,-99,5184,1276,4688,479,5904,2,-1,?
2017-03-27 15:24:03.975000,675,6320,-153,5488,-478,8152,-603,7544,143,736,470,7792,-46,6208,251,6136,1464,6136,-225,656,247,3808,-89,5184,1274,4688,468,5904,2,-1,?
2017-03-27 15:24:03.981000,678,6320,-149,5488,-475,8152,-607,7544,131,736,464,7792,-38,6208,257,6136,1472,6136,-206,656,268,3808,-89,5184,1286,4688,479,5904,2,-1,?
2017-03-27 15:24:03.990000,684,6320,-141,5488,-470,8152,-600,7544,139,736,476,7792,-13,6208,259,6136,1493,6136,-195,656,290,3808,-88,5184,1303,4688,499,5904,2,-1,?
2017-03-27 15:24:03.998000,677,6320,-141,5488,-470,8152,-602,7544,139,736,469,7792,7,6208,258,6136,1508,6136,-200,656,295,3808,-67,5184,1304,4688,498,5904,2,-1,?
2017-03-27 15:24:04.007000,659,6320,-154,5488,-479,8152,-615,7544,117,736,454,7792,-10,6208,250,6136,1492,6136,-214,656,291,3808,-76,5184,1286,4688,481,5904,2,-1,?
2017-03-27 15:24:04.013000,645,6320,-163,5488,-489,8152,-627,7544,110,736,462,7792,-41,6208,242,6136,1459,6136,-217,656,297,3808,-99,5184,1272,4688,473,5904,2,-1,?
2017-03-27 15:24:04.022000,644,6320,-162,5488,-486,8152,-627,7544,117,736,468,7792,-53,6208,249,6136,1455,6136,-209,656,312,3808,-100,5184,1276,4688,480,5904,2,-1,?
2017-03-27 15:24:04.029000,649,6320,-162,5488,-485,8152,-621,7544,119,736,456,7792,-53,6208,256,6136,1468,6136,-210,656,316,3808,-104,5184,1280,4688,491,5904,2,-1,?
2017-03-27 15:24:04.037000,654,6320,-154,5488,-480,8152,-618,7544,121,736,449,7792,-57,6208,250,6136,1461,6136,-214,656,324,3808,-110,5184,1283,4688,506,5904,2,-1,?
2017-03-27 15:24:04.045000,668,6320,-137,5488,-456,8152,-611,7544,127,736,453,7792,-54,6208,248,6136,1463,6136,-195,656,342,3808,-93,5184,1297,4688,518,5904,2,-1,?
2017-03-27 15:24:04.053000,679,6320,-136,5488,-450,8152,-606,7544,122,736,462,7792,-46,6208,249,6136,1474,6136,-174,656,354,3808,-78,5184,1305,4688,504,5904,2,-1,?
2017-03-27 15:24:04.060000,672,6320,-142,5488,-475,8152,-611,7544,111,736,468,7792,-46,6208,246,6136,1465,6136,-185,656,359,3808,-93,5184,1298,4688,479,5904,2,-1,?
2017-03-27 15:24:04.067000,664,6320,-137,5488,-486,8152,-617,7544,113,736,464,7792,-47,6208,247,6136,1455,6136,-202,656,356,3808,-112,5184,1272,4688,475,5904,2,-1,?
2017-03-27 15:24:04.075000,674,6320,-133,5488,-473,8152,-611,7544,124,736,458,7792,-41,6208,253,6136,1467,6136,-191,656,356,3808,-114,5184,1243,4688,486,5904,2,-1,?
2017-03-27 15:24:04.083000,681,6320,-136,5480,-467,8152,-606,7544,131,736,465,7792,-34,6208,258,6136,1478,6136,-178,656,371,3808,-101,5184,1228,4688,496,5904,2,-1,?
2017-03-27 15:24:04.091000,678,6320,-136,5480,-476,8152,-609,7544,127,736,468,7792,-38,6208,255,6136,1471,6136,-186,656,381,3808,-94,5184,1232,4688,507,5888,2,-1,?
2017-03-27 15:24:04.098000,687,6320,-140,5480,-486,8152,-610,7544,117,736,455,7792,-41,6208,250,6136,1474,6136,-186,656,382,3808,-93,5184,1243,4688,516,5888,2,-1,?
2017-03-27 15:24:04.107000,687,6320,-151,5480,-489,8152,-615,7544,102,736,435,7792,-25,6208,250,6136,1487,6136,-182,656,378,3808,-89,5184,1241,4688,511,5888,2,-2,?
2017-03-27 15:24:04.116000,669,6320,-154,5480,-493,8152,-623,7544,90,744,421,7792,-20,6208,249,6136,1471,6136,-214,656,367,3808,-108,5184,1226,4688,498,5888,2,-1,?
